time,EEG Fp1-Ref,EEG Fp2-Ref,EEG F3-Ref,EEG F4-Ref,EEG F7-Ref,EEG F8-Ref,EEG Fz-Ref,EEG C3-Ref,EEG C4-Ref,EEG Cz-Ref,EEG T3-Ref,EEG T5-Ref,EEG T4-Ref,EEG T6-Ref,EEG P3-Ref,EEG P4-Ref,EEG Pz-Ref,EEG O1-Ref,EEG O2-Ref,ECG EKG,Resp Effort
0,1.529377712332333,0.6138510849328154,0.7664388561660683,1.3767899410990798,4.733720908230644,1.3767899410990798,0.7664388561660683,3.6656065095978745,8.701002960295222,0.30867554246630946,6.564774163029679,5.649247535630163,-0.9120266273997142,0.9190266273993212,12.515697241126546,3.818194280831127,4.886308679463898,1.834553254798839,5.191484221930404,-18.917383632923563,220.4928294320503
4,8.395827417828716,4.275957594530887,3.97078205206438,8.548415189061968,28.99517653431786,9.006178502761728,2.750079882198356,22.12872682882148,52.951456617938575,1.3767899410990798,39.52373274941232,33.57280967131545,-6.2525986205635675,4.428545365764139,79.50172881252458,22.891665684987746,29.91070316171738,10.074292901394498,32.199519730216174,-201.87012134159386,315.70759868160013
8,17.551093691823894,11.294995071260521,5.801835306863415,16.177803750724618,53.40921993163834,18.008857005523648,-5.184484221930797,39.676320520645575,86.06300297555445,0.9190266273993212,74.00856904812748,48.98417456587399,-13.57681163975971,6.869949705496186,127.87205229346577,41.354786004211356,58.13944083986918,15.720040437024858,65.46365385906532,-416.8662910092472,407.26026142155195
12,22.28131460005473,15.872628208258108,0.46126331369956236,14.957101580858593,40.8970226905116,15.720040437024858,-24.868306711020423,25.333070024719795,32.80987081514919,-1.21720216986622,67.75247042756412,8.395827417828716,-15.102689352092238,6.564774163029679,26.401184423352564,28.690000991851356,52.64628107547207,9.311354045228233,67.4472948850976,-398.25058291879037,495.91375650807186
16,23.95978008362052,9.769117358927993,-5.794835306863808,9.921705130161246,17.703681463057148,7.480300790429198,-33.870985213782355,0.7664388561660683,-34.17616075624886,-1.5223777123327258,54.324746559037855,-30.514054246650783,-13.11904832605995,9.006178502761728,-110.01228305917556,6.717361934262934,33.4202219000822,4.733720908230644,54.78250987273761,-141.90312724692544,565.4937801904351
20,24.570131168553527,-1.9801410260324848,-3.81119428083152,8.701002960295222,27.927062135685095,7.785476332895703,-19.52773471785657,7.327713019195945,0.9190266273993212,0.9190266273993212,69.58352368236314,-0.9120266273997142,-14.18716272469272,11.75275838496028,-59.96349409466861,14.346750495925582,38.6082061220128,17.093330378124136,59.665318552201704,19.534734717856182,621.1883166905726
23,21.060612430188712,0.9190266273993212,2.750079882198356,9.921705130161246,54.62992210150436,14.346750495925582,-0.1490877712334494,33.4202219000822,89.11475840021953,2.5974921109651037,86.67335406048747,56.15579981383689,-15.255277123325492,9.311354045228233,111.23998522904121,38.303030579546295,56.003212042603636,31.283993102816655,70.65163808099592,-126.18658680990039,653.8420997344887
27,16.025215979491364,13.126048326059557,3.818194280831127,10.074292901394498,57.83426529740267,15.567452665791604,-1.674965483565979,37.99785503707978,100.71142901394676,1.0716143986325743,72.17751579332845,57.52908975493616,-14.339750495925975,2.5974921109651037,153.50679786065228,40.43925937681184,56.7661508987699,26.09600888088606,67.75247042756412,-346.0655651570179,670.9319301126129
31,19.83991026032269,14.194162724692328,-1.21720216986622,9.616529587694739,38.6082061220128,13.27863609729281,-21.96913905758862,17.39850592059064,25.18048225348654,-1.369789941099473,48.068647938474484,0.6138510849328154,-15.560452665791995,-0.7594388561664611,16.94074260689088,19.07697140415642,42.42290040284412,10.074292901394498,58.59720415356894,-297.54265390484346,671.542281197546
35,30.673642017883648,14.041574953459074,-5.4896597643973015,11.600170613727029,24.722718939786784,13.583811639759316,-31.124405331583798,-0.30167554246670236,-34.93909961241512,-1.21720216986622,50.20487673574003,-36.15980178228115,-16.47597929319151,1.9871410260320919,-112.91145071260739,1.9871410260320919,32.35210750144943,4.428545365764139,56.003212042603636,-15.560452665791995,662.9973660084839
39,33.7253974425487,20.60284911648895,-5.33707199316405,14.499338267158832,32.046931958982924,14.957101580858593,-17.08633037812453,5.801835306863415,-5.33707199316405,1.0716143986325743,66.68435602893133,-7.778476332896096,-15.102689352092238,4.123369823297633,-72.01792802209559,8.548415189061968,36.31938955351401,13.73639941099257,59.054967467268696,146.9455236976224,649.1118788262579
43,27.316711050752083,21.51837574388847,-1.369789941099473,15.262277123325099,52.03592999053906,19.83991026032269,2.139728797265345,26.401184423352564,73.24563019196121,2.750079882198356,73.39821796319447,41.81254931791111,-14.18716272469272,0.46126331369956236,81.33278206732363,28.07964990691835,47.15312131107497,21.823551286354977,61.80154734946725,6.717361934262934,635.0738038727986
47,22.586490142521242,17.093330378124136,-0.6068510849332083,14.041574953459074,57.83426529740267,24.722718939786784,1.9871410260320919,33.57280967131545,97.3544980468152,1.2242021698658272,68.66799705496364,45.47465582750918,-15.102689352092238,-5.184484221930797,142.0627150181583,33.7253974425487,50.20487673574003,15.720040437024858,60.886020722067734,-221.24876828821695,623.7823088015379
51,26.24859665211931,15.262277123325099,-5.031896450697544,14.499338267158832,41.65996154667786,23.349428998687504,-17.39150592059103,19.07697140415642,36.31938955351401,-1.674965483565979,61.648959578234,-3.963782052064773,-15.71304043702525,-5.642247535630556,31.131405331583405,18.771795861689917,41.81254931791111,4.275957594530887,58.29202861110243,-218.80736394848495,616.610683553575
55,34.94609961241473,16.33039152195787,-7.931064104129349,17.245918149357387,27.011535508285576,21.976139057588227,-28.835588763085006,2.9026676534316094,-29.29335207678476,-1.5223777123327258,60.27566963713472,-44.70471697134331,-15.255277123325492,-1.0646143986329673,-107.72346649067677,2.444904339731851,32.96245858638244,-1.0646143986329673,56.61356312753665,23.95978008362052,613.8641036713765
59,38.303030579546295,21.51837574388847,-5.33707199316405,19.382146946622928,34.48833629871497,26.858947737052326,-16.933742606891276,7.632888561662451,-10.830231757561156,1.0716143986325743,66.07400494399833,-25.631245567186692,-14.18716272469272,2.139728797265345,-90.93881165501895,6.259598620563175,35.86162623981424,5.344071993163657,58.74979192480219,202.48747242652644,614.3218669850762
62,32.96245858638244,27.16412327951883,-0.1490877712334494,18.771795861689917,54.78250987273761,32.96245858638244,2.5974921109651037,30.673642017883648,70.49905030976267,2.444904339731851,74.00856904812748,27.16412327951883,-12.966460554826696,0.7664388561660683,63.48001283303302,26.401184423352564,48.98417456587399,18.161444776756905,64.39553946043254,95.06568147831639,615.8477446974088
66,26.858947737052326,26.09600888088606,1.2242021698658272,15.567452665791604,62.564486205633514,33.57280967131545,4.581133136997392,44.1013658864099,106.81493986327688,0.9190266273993212,73.24563019196121,44.25395365764315,-13.271636097293204,-3.81119428083152,148.77657695242144,35.556450697347735,55.08768541520411,20.90802465895546,66.8369438001646,-145.56523375652353,617.0684468672747
70,29.60552761925088,25.027894482253288,-2.5904921109654966,13.27863609729281,48.67899902340749,30.826229789116898,-14.492338267159225,31.74175641651642,52.03592999053906,-1.21720216986622,63.63260060426629,1.6819654835655862,-14.797513809625734,-6.40518639179682,53.256632160405076,21.060612430188712,45.62724359874244,9.921705130161246,63.32742506179977,-191.18897735526616,615.8477446974088
74,37.54009172338003,28.384825449384852,-7.015537476729833,13.27863609729281,31.74175641651642,25.638245567186296,-29.445939848018014,11.14240730002727,-19.52773471785657,-1.21720216986622,59.207555238501946,-45.467655827509574,-16.018215979491757,-6.2525986205635675,-97.80526136051535,0.15608777123305648,31.589168645283163,-2.5904921109654966,55.39286095767062,25.638245567186296,611.7278748741109
78,38.150442808313045,24.264955626087023,-8.083651875362602,11.75275838496028,33.1150463576157,20.90802465895546,-22.579490142521635,9.616529587694739,-15.255277123325492,0.46126331369956236,64.85330277413232,-35.85462623981464,-18.307032547990552,-9.304354045228626,-108.02864203314327,-2.8956676534320023,28.232237678151602,-2.5904921109654966,49.13676233710726,221.56094383068307,604.2510740836815
82,28.99517653431786,8.853590731528476,-6.710361934263327,6.869949705496186,48.98417456587399,23.196841227454254,-5.794835306863808,28.690000991851356,58.902379696035446,2.139728797265345,70.95681362346241,15.414864894558352,-21.96913905758862,-16.47597929319151,35.251275154881235,13.27863609729281,36.777152867213765,7.938064104128956,48.98417456587399,139.7738984496595,593.7225178685869
86,19.687322489089436,-4.574133136997785,-8.083651875362602,0.9190266273993212,56.61356312753665,25.18048225348654,-3.963782052064773,39.52373274941232,101.474367870113,1.834553254798839,67.90505819879736,33.87798521378196,-26.08900888088645,-25.17348225348693,133.6703876003294,21.51837574388847,40.134083834345326,5.344071993163657,47.45829685354147,-110.77522191534185,580.9051450849938
90,17.856269234290398,-0.30167554246670236,-14.64492603839248,-2.8956676534320023,42.11772486037761,20.755436887722205,-23.3424289986879,24.570131168553527,52.18851776177232,-0.6068510849332083,52.49369330423882,-12.508697241126939,-29.75111539048452,-30.971817560350548,51.73075444807255,5.191484221930404,28.232237678151602,-13.11904832605995,40.134083834345326,-201.4123580278941,566.4093068178348
94,21.365787972655212,13.583811639759316,-21.663963515122113,-3.81119428083152,20.14508580278919,16.94074260689088,-40.73743491927873,1.3767899410990798,-25.783833338419946,-1.674965483565979,42.11772486037761,-65.60924163029897,-31.88734418775006,-30.36146647541753,-106.80793986327726,-17.544093691824283,13.431223868526063,-24.563131168553923,34.03057298501521,-16.47597929319151,550.845354152043
98,23.349428998687504,13.583811639759316,-23.037253456221393,-4.574133136997785,17.856269234290398,16.635567064424375,-35.09168738364837,-3.2008431958985084,-32.955458586382825,-0.1490877712334494,48.526411252174235,-62.862661748100415,-33.7183974425491,-29.29335207678476,-140.3772495345929,-22.579490142521635,10.22688067262775,-19.985498031556332,32.50469527268268,193.33220615253126,534.3658748588516
102,19.687322489089436,2.444904339731851,-19.069971404156817,-7.625888561662843,37.23491618091352,13.583811639759316,-16.17080375072501,15.109689352091845,38.303030579546295,1.6819654835655862,56.003212042603636,-13.881987182226215,-37.22791618091391,-33.870985213782355,-7.473300790429591,-7.778476332896096,18.771795861689917,-8.083651875362602,34.18316075624847,143.13082941679107,516.9708689382607
105,11.600170613727029,-0.6068510849332083,-17.544093691824283,-12.661285012360192,50.20487673574003,5.954423078096669,-9.609529587695132,30.21587870418389,90.94581165501855,1.6819654835655862,57.83426529740267,18.466620319223413,-41.95813708914475,-41.04261046174524,110.9348096865747,3.6656065095978745,24.875306711020034,-3.3534309671317617,35.709038468580985,-105.12947437971147,498.8129241615037
109,9.921705130161246,4.275957594530887,-21.663963515122113,-16.018215979491757,39.37114497817907,2.139728797265345,-25.326070024720188,20.14508580278919,53.71439547410485,-0.7594388561664611,50.05228896450677,-14.492338267159225,-44.094365886410294,-45.162480285043074,54.324746559037855,-7.320713019196338,16.635567064424375,-15.255277123325492,32.199519730216174,-223.69017262794904,479.4342772148805
113,18.619208090456663,8.701002960295222,-26.699359965819465,-15.560452665791995,18.466620319223413,2.139728797265345,-42.41590040284452,-3.963782052064773,-26.08900888088645,-2.132728797265738,37.69267949461328,-73.54380573442812,-43.178839259010786,-45.00989251380982,-104.67171106601172,-30.514054246650783,0.7664388561660683,-31.429580874050302,23.807192312387265,-56.60656312753704,459.1401036408579
117,24.11236785485377,7.632888561662451,-27.46229882198573,-15.102689352092238,13.126048326059557,1.529377712332333,-38.601206122013195,-12.813872783593444,-47.29870908230861,-0.6068510849332083,39.676320520645575,-77.96885110019245,-44.55212920011006,-43.94177811517704,-159.6033087099828,-39.36414497817945,-5.4896597643973015,-31.73475641651681,18.619208090456663,172.5802692648089,437.77781566820255
121,18.619208090456663,-0.4542633136999553,-23.647604541154404,-16.628567064424768,28.99517653431786,5.954423078096669,-19.222559175390067,4.275957594530887,17.245918149357387,1.834553254798839,52.18851776177232,-23.037253456221393,-47.75647239600837,-45.467655827509574,-36.77015286721416,-25.020894482253677,3.5130187383646216,-14.64492603839248,22.12872682882148,165.56123178807925,415.34741329691434
125,12.973460554826303,-3.5060187383650145,-19.985498031556332,-18.307032547990552,44.864304742576174,10.989819528794015,-7.015537476729833,23.044253456221,80.41725543992409,2.139728797265345,56.4609753563034,18.619208090456663,-49.58752565080741,-50.65564004944018,98.72778798791447,-9.91470513016164,12.973460554826303,-3.963782052064773,25.485657795953042,-53.249632160405476,392.4592476119264
129,16.025215979491364,7.938064104128956,-21.20620020142236,-19.222559175390067,40.8970226905116,9.769117358927993,-17.544093691824283,17.551093691823894,56.30838758507014,-0.6068510849332083,44.55912920010966,-7.778476332896096,-50.04528896450716,-55.08068541520451,67.1421193426311,-17.39150592059103,8.395827417828716,-14.034574953459467,21.213200201421962,-173.4887958922088,368.9607308420054
133,23.65460454115401,18.92438363292317,-25.631245567186692,-19.069971404156817,21.976139057588227,8.853590731528476,-36.922740638447415,-3.963782052064773,-21.96913905758862,-2.132728797265738,32.199519730216174,-65.45665385906571,-49.43493787957416,-52.4866933042392,-86.36117851802138,-37.83826726584693,-4.26895759453128,-28.072649906918738,15.109689352091845,-16.32339152195826,345.157038529618
137,28.690000991851356,14.346750495925582,-27.920062135685487,-18.307032547990552,12.515697241126546,11.600170613727029,-37.380503952147166,-13.57681163975971,-50.350464506973665,-0.6068510849332083,40.134083834345326,-74.91709567552738,-48.67199902340789,-46.23059468367583,-160.21365979491577,-45.467655827509574,-8.694002960295615,-26.54677219458621,14.346750495925582,226.4437525101472,321.2007584459972
141,25.638245567186296,4.886308679463898,-23.800192312387654,-18.307032547990552,25.638245567186296,14.957101580858593,-17.23891814935778,1.3767899410990798,9.006178502761728,1.9871410260320919,54.01957101657135,-27.004535508285965,-48.36682348094138,-43.331427030244036,-54.62292210150475,-30.514054246650783,0.003499999999803549,-13.424223868526456,18.466620319223413,245.8223994567703,297.0918905911433
145,16.94074260689088,3.2078431958981155,-19.069971404156817,-19.832910260323082,41.507373775444606,17.093330378124136,-2.5904921109654966,20.60284911648895,77.51808778649229,2.292316568498598,49.13676233710726,14.957101580858593,-48.519411252174635,-45.772831369976075,88.80958285775303,-12.813872783593444,9.769117358927993,-6.557774163030072,20.755436887722205,25.943421109652807,273.13561050752253
148,13.126048326059557,5.344071993163657,-21.20620020142236,-22.121726828821874,36.16680178228076,14.804513809625341,-12.966460554826696,17.245918149357387,63.32742506179977,-0.4542633136999553,34.48833629871497,-2.8956676534320023,-49.74011342204066,-50.350464506973665,77.06032447279254,-17.544093691824283,5.649247535630163,-15.102689352092238,16.025215979491364,-136.71514302499486,249.17933042390186
152,18.771795861689917,7.480300790429198,-27.61488659321898,-23.037253456221393,15.109689352091845,10.837231757560764,-34.17616075624886,-5.4896597643973015,-15.255277123325492,-2.4379043397322437,27.774474364451837,-59.20055523850234,-51.26599113437319,-51.723754448072945,-74.91709567552738,-40.73743491927873,-8.99917850276212,-29.903703161717775,6.717361934262934,-25.47865779595344,225.22305034028116
156,24.11236785485377,7.938064104128956,-30.81922978911729,-23.189841227454647,4.275957594530887,11.14240730002727,-37.075328409680665,-19.52773471785657,-57.21691421247005,-1.0646143986329673,30.21587870418389,-83.91977417828932,-52.1815177617727,-49.74011342204066,-171.96291817987625,-55.08068541520451,-18.459620319223802,-36.46497732474765,-1.21720216986622,216.06778406628598,201.4193580278937
160,19.534734717856182,4.275957594530887,-28.37782544938524,-24.563131168553923,15.872628208258108,14.194162724692328,-18.76479586169031,-7.473300790429591,-7.778476332896096,1.6819654835655862,37.38750395214678,-47.90906016724162,-53.097044389172225,-49.74011342204066,-85.44565189062183,-44.70471697134331,-12.508697241126939,-29.140764305551507,-2.8956676534320023,274.3563126773886,177.7682534867395
164,10.22688067262775,0.7664388561660683,-24.563131168553923,-26.08900888088645,31.131405331583405,15.262277123325099,-2.743079882198749,13.583811639759316,65.76882940153183,2.444904339731851,44.1013658864099,-1.21720216986622,-52.63928107547246,-52.63928107547246,67.90505819879736,-25.47865779595344,-0.4542633136999553,-19.985498031556332,-0.4542633136999553,68.05764597003062,154.4223244880518
168,7.785476332895703,0.7664388561660683,-25.631245567186692,-26.85194773705272,28.07964990691835,15.262277123325099,-9.151766273995372,14.499338267158832,62.717073976866764,0.46126331369956236,38.455618350779545,-12.661285012360192,-51.723754448072945,-56.301387585070536,80.72243098239062,-26.394184423352957,-1.21720216986622,-26.08900888088645,-3.3534309671317617,-144.95488267159047,131.0763954893641
172,14.957101580858593,3.818194280831127,-29.445939848018014,-25.783833338419946,10.379468443861004,16.33039152195787,-28.22523767815199,-5.031896450697544,-12.661285012360192,-1.827553254799232,24.11236785485377,-72.3231035645621,-50.04528896450716,-56.148799813837286,-62.40489843440066,-46.993533539842105,-14.950101580858986,-42.41590040284452,-12.05093392742718,-87.42929291665413,107.88305426190965
176,21.976139057588227,10.074292901394498,-30.971817560350548,-23.037253456221393,-0.6068510849332083,18.771795861689917,-31.88734418775006,-19.985498031556332,-61.03160849330137,-1.369789941099473,22.12872682882148,-100.70442901394715,-47.29870908230861,-51.723754448072945,-175.01467360454134,-60.42125740836837,-25.020894482253677,-48.67199902340789,-18.76479586169031,168.61298721274432,84.9948885769217
180,20.14508580278919,9.311354045228233,-27.61488659321898,-21.96913905758862,10.074292901394498,21.060612430188712,-14.339750495925975,-10.219880672628143,-17.544093691824283,1.2242021698658272,33.26763412884895,-63.93077614673318,-45.772831369976075,-49.74011342204066,-109.40193197424256,-50.04528896450716,-19.832910260323082,-40.279671605578976,-18.76479586169031,271.9149083376565,62.411898434400264
184,12.363109469893292,-0.1490877712334494,-22.121726828821874,-23.49501676992115,29.60552761925088,21.51837574388847,3.5130187383646216,12.363109469893292,61.496371807000735,2.5974921109651037,41.2021982329781,-13.881987182226215,-45.315068056276324,-52.4866933042392,47.30570908230822,-29.75111539048452,-7.168125247963085,-31.73475641651681,-15.255277123325492,63.48001283303302,40.134083834345326
188,6.869949705496186,-0.7594388561664611,-22.42690237128838,-25.936421109653196,30.21587870418389,18.466620319223413,0.003499999999803549,17.551093691823894,71.56716470839542,0.30867554246630946,35.556450697347735,-17.08633037812453,-44.55212920011006,-56.148799813837286,85.30006411938821,-26.699359965819465,-4.574133136997785,-37.685679494613666,-15.560452665791995,-188.1372219306011,18.161444776756905
191,10.532056215094258,10.532056215094258,-27.61488659321898,-27.004535508285965,10.837231757560764,13.27863609729281,-19.832910260323082,-2.285316568498991,0.7664388561660683,-1.9801410260324848,21.365787972655212,-72.3231035645621,-45.162480285043074,-54.775509872738,-42.87366371654428,-45.162480285043074,-16.018215979491757,-53.097044389172225,-21.20620020142236,-167.6904605853452,-3.2008431958985084
195,18.161444776756905,13.126048326059557,-30.514054246650783,-25.47865779595344,-3.3534309671317617,10.22688067262775,-28.072649906918738,-21.053612430189105,-58.742791924802574,-1.0646143986329673,15.872628208258108,-106.35017654957751,-46.840945768608854,-48.82458679464114,-168.14822389904495,-61.33678403576788,-26.08900888088645,-60.87902072206812,-26.394184423352957,40.59184714804509,-24.10536785485416
199,17.39850592059064,2.750079882198356,-28.22523767815199,-23.952780083620908,3.818194280831127,10.68464398632751,-13.881987182226215,-14.950101580858986,-29.903703161717775,0.9190266273993212,22.586490142521242,-73.08604242072836,-46.53577022614235,-45.62024359874283,-123.44000692770184,-54.165158787805,-21.663963515122113,-50.65564004944018,-25.326070024720188,130.31345663319783,-44.55212920011006
203,8.701002960295222,-2.8956676534320023,-23.647604541154404,-22.579490142521635,20.4502613452557,15.109689352091845,5.038896450697151,7.327713019195945,49.13676233710726,1.9871410260320919,32.80987081514919,-14.18716272469272,-44.094365886410294,-48.82458679464114,35.098687383647984,-32.19251973021657,-8.38882741782911,-35.549450697348135,-20.29067357402284,75.68703453169327,-64.2359516891997
207,2.9026676534316094,-1.21720216986622,-22.884665684988136,-21.663963515122113,22.12872682882148,18.771795861689917,4.581133136997392,14.194162724692328,72.0249280220952,0.9190266273993212,31.589168645283163,-2.8956676534320023,-43.02625148777753,-50.80822782067343,95.3708570207829,-23.49501676992115,-3.6586065095982674,-34.32874852748211,-18.1544447767573,143.74118050172407,-83.61459863582282
211,5.191484221930404,0.15608777123305648,-26.85194773705272,-20.90102465895585,3.818194280831127,14.194162724692328,-14.64492603839248,-4.421545365764532,8.243239646595462,-1.5223777123327258,15.567452665791604,-50.503052278206916,-43.02625148777753,-44.85730474257657,-18.917383632923563,-37.075328409680665,-12.661285012360192,-45.00989251380982,-20.29067357402284,440.06663223670125,-102.38289449751294
215,11.447582842493775,1.6819654835655862,-28.683000991851753,-18.76479586169031,-13.271636097293204,5.954423078096669,-25.020894482253677,-24.715718939787177,-60.11608186590186,-1.5223777123327258,8.701002960295222,-86.51376628925462,-42.72107594531102,-35.702038468581385,-156.09378997161798,-53.40221993163873,-23.3424289986879,-51.571166676839695,-22.884665684988136,726.0161155278173,-120.54083927427001
219,12.515697241126546,1.0716143986325743,-23.647604541154404,-15.560452665791995,-7.625888561662843,4.886308679463898,-11.287995071260914,-20.748436887722594,-44.85730474257657,0.6138510849328154,18.31403254799016,-59.50573078096885,-44.39954142887681,-31.58216864528356,-133.815975371563,-50.197876735740415,-21.663963515122113,-44.70471697134331,-23.49501676992115,717.928963652455,-138.24102073732737
223,5.344071993163657,-4.879308679464291,-14.950101580858986,-12.813872783593444,13.27863609729281,8.701002960295222,9.921705130161246,2.9026676534316094,32.50469527268268,2.444904339731851,26.70635996581907,-6.862949705496579,-48.36682348094138,-33.10804635761608,21.823551286354977,-29.903703161717775,-9.45694181646188,-31.73475641651681,-20.138085802789586,388.49196555986185,-155.63602665791822
227,-1.5223777123327258,-11.593170613727422,-10.982819528794408,-11.440582842494168,21.365787972655212,8.395827417828716,12.515697241126546,14.499338267158832,65.15847831659882,1.2242021698658272,25.027894482253288,4.581133136997392,-51.418578905606445,-36.77015286721416,103.61059666737856,-19.985498031556332,-3.81119428083152,-29.29335207678476,-19.069971404156817,-21.053612430189105,-172.2680937223428
230,1.0716143986325743,-9.45694181646188,-13.424223868526456,-9.91470513016164,6.259598620563175,3.6656065095978745,-5.4896597643973015,0.6138510849328154,8.548415189061968,-1.5223777123327258,14.499338267158832,-38.9063816644797,-53.097044389172225,-37.075328409680665,7.632888561662451,-32.497695272683075,-12.05093392742718,-40.89002269051199,-24.715718939787177,-202.93823574022662,-188.44239747306756
234,9.006178502761728,0.30867554246630946,-15.102689352092238,-6.40518639179682,-11.440582842494168,-1.0646143986329673,-18.1544447767573,-17.69668146305754,-64.38853946043292,-1.674965483565979,7.938064104128956,-79.64731658375824,-54.928097643971256,-30.05629093295103,-136.40996748252834,-48.67199902340789,-21.816551286355367,-49.892701193273915,-30.05629093295103,-69.57652368236354,-204.0063501388594
238,11.294995071260521,2.9026676534316094,-11.135407300027662,-2.743079882198749,-8.694002960295615,-1.21720216986622,-7.931064104129349,-14.492338267159225,-59.50573078096885,0.30867554246630946,19.07697140415642,-63.62560060426668,-57.21691421247005,-22.121726828821874,-136.40996748252834,-45.00989251380982,-19.37514694662332,-44.70471697134331,-29.445939848018014,119.93748818933662,-218.9599517197182
242,4.886308679463898,-2.5904921109654966,-3.3534309671317617,-0.4542633136999553,11.905346156193533,1.529377712332333,13.126048326059557,9.311354045228233,16.33039152195787,2.444904339731851,37.69267949461328,-10.219880672628143,-57.21691421247005,-19.069971404156817,13.583811639759316,-21.511375743888863,-5.031896450697544,-31.73475641651681,-24.563131168553923,50.35746450697328,-233.15061444441068
246,-2.4379043397322437,-4.726720908231037,0.9190266273993212,-0.30167554246670236,23.349428998687504,1.529377712332333,18.92438363292317,24.875306711020034,59.207555238501946,1.834553254798839,37.84526726584653,14.194162724692328,-56.148799813837286,-20.443261345256094,116.27538167973854,-6.100010849330315,4.275957594530887,-28.988176534318256,-23.037253456221393,-217.28148623615238,-246.57833831293698
250,-2.285316568498991,-2.132728797265738,-2.132728797265738,-0.4542633136999553,9.921705130161246,1.0716143986325743,1.9871410260320919,13.431223868526063,11.14240730002727,-0.9120266273997142,16.635567064424375,-24.563131168553923,-56.75915089877029,-21.35878797265561,38.6082061220128,-17.08633037812453,-2.8956676534320023,-41.95813708914475,-28.988176534318256,-315.8531864528338,-259.39571109653025
254,3.818194280831127,-4.116369823298026,-6.100010849330315,1.9871410260320919,-10.982819528794408,2.444904339731851,-13.57681163975971,-8.083651875362602,-62.710073976867164,-1.674965483565979,9.769117358927993,-76.59556115909318,-56.75915089877029,-16.781154835658022,-115.20026728110618,-36.46497732474765,-15.560452665791995,-55.23327318643776,-36.15980178228115,-104.21394775231197,-271.60273279519043
258,7.480300790429198,-13.11904832605995,-4.116369823298026,5.038896450697151,-11.287995071260914,2.292316568498598,-5.33707199316405,-10.067292901394891,-62.710073976867164,0.003499999999803549,26.09600888088606,-70.6446380809963,-54.01257101657174,-9.45694181646188,-141.29277616199244,-35.39686292611488,-15.255277123325492,-53.249632160405476,-37.533091723380416,124.66770909756747,-283.1994034089177
262,5.191484221930404,-14.797513809625734,3.2078431958981155,7.175125247962693,10.074292901394498,2.9026676534316094,16.78815483565763,11.75275838496028,15.872628208258108,1.9871410260320919,32.35210750144943,-16.32339152195826,-49.892701193273915,-5.33707199316405,-1.674965483565979,-11.593170613727422,-0.7594388561664611,-40.73743491927873,-33.56580967131585,63.32742506179977,-294.1857229377119
266,-0.1490877712334494,-4.879308679464291,8.243239646595462,7.480300790429198,24.264955626087023,5.649247535630163,25.943421109652807,28.690000991851356,72.33010356456171,1.834553254798839,26.24859665211931,13.888987182225822,-46.840945768608854,-5.947423078097062,116.1227939085053,7.02253747672944,9.463941816461487,-38.44861835077994,-31.429580874050302,-193.32520615253168,-304.4091036103398
270,-1.21720216986622,2.5974921109651037,5.344071993163657,5.649247535630163,13.888987182225822,3.818194280831127,9.921705130161246,18.31403254799016,35.709038468580985,-0.6068510849332083,21.670963515121723,-18.917383632923563,-46.993533539842105,-6.557774163030072,55.850624271370386,-0.6068510849332083,3.2078431958981155,-51.8763422193062,-36.61756509598091,-302.88322589800725,-314.17472096926804
273,4.275957594530887,1.6819654835655862,-0.4542633136999553,4.275957594530887,-6.2525986205635675,-3.0482554246652556,-10.067292901394891,-5.33707199316405,-42.263312631611264,-2.132728797265738,17.856269234290398,-70.9498136234628,-49.12976233710765,-2.285316568498991,-102.38289449751294,-20.443261345256094,-10.52505621509465,-66.06700494399871,-44.094365886410294,-127.55987675099965,-323.63516278572973
277,6.107010849329922,-2.4379043397322437,-2.8956676534320023,4.581133136997392,-12.05093392742718,-4.726720908231037,-8.694002960295615,-12.966460554826696,-58.590204153569324,-0.7594388561664611,18.466620319223413,-74.15415681936113,-50.503052278206916,3.0552554246648627,-153.04203454695292,-25.17348225348693,-14.950101580858986,-66.52476825769848,-46.53577022614235,105.74682546464409,-332.4852535172584
281,-0.4542633136999553,-7.625888561662843,0.46126331369956236,4.733720908230644,2.5974921109651037,-0.4542633136999553,10.074292901394498,4.581133136997392,8.548415189061968,1.834553254798839,28.690000991851356,-24.41054339732067,-48.97717456587439,3.97078205206438,-28.37782544938524,-7.778476332896096,-4.726720908231037,-54.165158787805,-42.263312631611264,98.11743690298145,-340.8775809350873
285,-8.38882741782911,-13.11904832605995,3.818194280831127,3.97078205206438,17.703681463057148,2.139728797265345,19.687322489089436,22.28131460005473,68.97317259743012,1.9871410260320919,36.01421401104749,16.48297929319112,-46.688357997375604,0.9190266273993212,102.23730672627929,8.395827417828716,4.733720908230644,-48.06164793847487,-38.14344280831344,-146.32817261268974,-348.5069694967499
289,-9.762117358928386,-17.39150592059103,0.46126331369956236,3.2078431958981155,11.14240730002727,2.5974921109651037,4.886308679463898,14.499338267158832,42.11772486037761,-0.6068510849332083,19.07697140415642,-8.694002960295615,-47.14612131107536,-2.8956676534320023,63.48001283303302,0.15608777123305648,-1.827553254799232,-58.89537969603583,-41.8055493179115,-316.005774224067,-355.67859474471277
293,-4.726720908231037,-20.90102465895585,-6.2525986205635675,4.581133136997392,-11.593170613727422,2.139728797265345,-15.71304043702525,-8.99917850276212,-34.93909961241512,-1.9801410260324848,-4.26895759453128,-70.0342869960633,-47.29870908230861,-3.3534309671317617,-92.92245268105123,-22.42690237128838,-17.544093691824283,-71.86534025086233,-49.74011342204066,-188.28980970183434,-362.23986890774273
297,-1.5223777123327258,-18.459620319223802,-8.083651875362602,7.327713019195945,-22.121726828821874,-0.4542633136999553,-14.797513809625734,-18.307032547990552,-59.810906323435354,-0.6068510849332083,3.360430967131369,-81.17319429609076,-45.00989251380982,0.30867554246630946,-163.87576630451386,-30.66664201788404,-23.49501676992115,-69.42393591113029,-51.8763422193062,64.09036391796604,-368.19079198583955
301,-5.031896450697544,-9.609529587695132,-2.8956676534320023,8.701002960295222,-6.710361934263327,0.9190266273993212,5.954423078096669,-1.369789941099473,1.6819654835655862,1.834553254798839,27.16412327951883,-28.988176534318256,-43.63660257271054,1.9871410260320919,-54.31774655903824,-14.492338267159225,-13.729399410992963,-54.928097643971256,-46.840945768608854,91.55616273995157,-373.5313639790034
305,-10.52505621509465,-5.794835306863808,1.834553254798839,8.701002960295222,10.989819528794015,7.02253747672944,21.060612430188712,18.771795861689917,68.05764597003062,2.139728797265345,28.07964990691835,14.499338267158832,-44.39954142887681,-1.21720216986622,89.11475840021953,3.0552554246648627,-2.5904921109654966,-46.993533539842105,-42.11072486037801,-152.58427123325316,-378.2615848872343
309,-10.677643986327903,-8.846590731528869,0.6138510849328154,9.006178502761728,6.259598620563175,6.107010849329922,12.515697241126546,16.025215979491364,51.42557890560605,-0.30167554246670236,9.15876627399498,-6.2525986205635675,-44.55212920011006,-4.26895759453128,75.68703453169327,-0.7594388561664611,-4.879308679464291,-54.01257101657174,-42.263312631611264,-341.64051979125355,-382.53404248176537
312,-3.3534309671317617,-7.778476332896096,-2.285316568498991,11.905346156193533,-12.05093392742718,1.529377712332333,-5.33707199316405,-3.2008431958985084,-25.47865779595344,-1.827553254799232,-0.6068510849332083,-61.18419626453463,-42.263312631611264,-0.1490877712334494,-72.93345464949509,-19.680322489089825,-16.628567064424768,-64.08336391796642,-43.02625148777753,-223.99534817041553,-386.19614899136343
316,3.97078205206438,-3.5060187383650145,-1.827553254799232,14.957101580858593,-18.917383632923563,3.0552554246648627,-5.33707199316405,-13.424223868526456,-62.55748620563391,-0.9120266273997142,5.801835306863415,-75.52744676046039,-40.73743491927873,7.785476332895703,-161.1291864223153,-29.75111539048452,-23.647604541154404,-63.77818837549993,-41.34778600421175,32.199519730216174,-389.40049218726176
320,2.444904339731851,-5.4896597643973015,2.444904339731851,16.025215979491364,-4.879308679464291,7.327713019195945,14.651926038392087,0.15608777123305648,-9.45694181646188,1.529377712332333,18.008857005523648,-30.20887870418428,-40.58484714804548,12.6682850123598,-69.27134813989704,-17.39150592059103,-17.69668146305754,-52.1815177617727,-35.702038468581385,72.78786687826147,-392.4522476119268
324,-5.642247535630556,-12.966460554826696,7.632888561662451,15.872628208258108,12.515697241126546,8.090651875362209,31.589168645283163,21.365787972655212,64.70071500289905,2.444904339731851,27.16412327951883,18.466620319223413,-40.58484714804548,13.126048326059557,82.24830869472315,2.444904339731851,-6.862949705496579,-42.41590040284452,-28.988176534318256,-162.65506413464786,-394.89365195165885
328,-9.304354045228626,-16.32339152195826,8.701002960295222,15.262277123325099,12.21052169866004,7.02253747672944,25.638245567186296,22.28131460005473,60.886020722067734,0.003499999999803549,24.722718939786784,9.769117358927993,-39.97449606311247,12.057933927426786,92.47168936735109,3.360430967131369,-7.168125247963085,-47.29870908230861,-28.072649906918738,-369.86925746940534,-397.1824685201576
332,-1.21720216986622,-8.083651875362602,7.02253747672944,17.245918149357387,-2.8956676534320023,9.921705130161246,7.632888561662451,3.818194280831127,-14.64492603839248,-2.132728797265738,10.22688067262775,-42.87366371654428,-37.685679494613666,16.78815483565763,-48.06164793847487,-14.18716272469272,-18.612208090457052,-59.658318552202104,-32.19251973021657,-288.6925631733148,-399.01352177495664
336,9.921705130161246,5.344071993163657,9.311354045228233,22.739077913754492,-10.830231757561156,15.720040437024858,6.869949705496186,-6.40518639179682,-59.658318552202104,-1.21720216986622,7.785476332895703,-62.862661748100415,-32.955458586382825,27.16412327951883,-152.4316834620199,-22.884665684988136,-24.563131168553923,-61.79454734946764,-33.56580967131585,-35.85462623981464,-400.5393994872892
340,12.820872783593051,9.006178502761728,16.94074260689088,27.927062135685095,2.444904339731851,20.90802465895546,27.927062135685095,8.701002960295222,-11.898346156193925,0.9190266273993212,27.011535508285576,-21.35878797265561,-27.15712327951922,34.18316075624847,-77.51108778649268,-7.168125247963085,-14.64492603839248,-46.688357997375604,-27.309711050752473,55.08768541520411,-401.9126894283885
344,7.785476332895703,5.649247535630163,23.807192312387265,29.452939848017625,22.739077913754492,23.807192312387265,47.15312131107497,32.65728304391594,68.21023374126388,2.139728797265345,39.21855720694581,29.60552761925088,-22.732077913754885,32.65728304391594,82.24830869472315,16.33039152195787,0.46126331369956236,-31.73475641651681,-19.985498031556332,-134.2737386852628,-402.828216055788
348,5.344071993163657,7.02253747672944,23.95978008362052,28.537413220618106,24.417543397320273,23.807192312387265,42.72807594531063,35.556450697347735,76.44997338785953,0.7664388561660683,28.690000991851356,25.638245567186296,-21.20620020142236,27.469298821985337,115.97020613727203,19.07697140415642,1.6819654835655862,-37.380503952147166,-22.274314600055128,-357.20447245704537,-403.5911549119543
352,11.14240730002727,12.21052169866004,19.687322489089436,28.84258876308461,7.327713019195945,22.433902371287985,22.433902371287985,15.567452665791604,5.191484221930404,-1.674965483565979,12.820872783593051,-29.445939848018014,-21.35878797265561,25.18048225348654,-16.32339152195826,0.15608777123305648,-11.135407300027662,-54.31774655903824,-30.81922978911729,-319.0575296487321,-404.048918225654
355,18.161444776756905,12.515697241126546,17.093330378124136,30.673642017883648,-6.710361934263327,22.586490142521242,14.499338267158832,-1.674965483565979,-51.418578905606445,-1.674965483565979,14.957101580858593,-61.03160849330137,-21.20620020142236,26.858947737052326,-139.76689844965986,-15.255277123325492,-21.053612430189105,-59.3531430097356,-36.922740638447415,-64.38853946043292,-404.2015059968872
359,17.245918149357387,8.853590731528476,19.687322489089436,32.046931958982924,0.9190266273993212,24.875306711020034,28.99517653431786,5.496659764396909,-18.612208090457052,0.6138510849328154,27.469298821985337,-29.140764305551507,-20.138085802789586,27.16412327951883,-90.4810483413192,-8.083651875362602,-16.628567064424768,-47.45129685354186,-37.380503952147166,77.06032447279254,-404.048918225654
363,10.379468443861004,7.175125247962693,25.790833338419553,32.96245858638244,21.365787972655212,29.30035207678437,47.76347239600798,27.927062135685095,60.12308186590147,2.444904339731851,37.38750395214678,22.12872682882148,-19.069971404156817,23.502016769920754,67.59988265633086,12.057933927426786,-3.963782052064773,-35.39686292611488,-35.702038468581385,-72.93345464949509,-403.74374268318746
367,6.4121863917964275,6.259598620563175,26.858947737052326,32.80987081514919,26.858947737052326,32.199519730216174,47.15312131107497,35.709038468580985,79.04396549882483,1.0716143986325743,38.150442808313045,26.858947737052326,-18.1544447767573,18.31403254799016,124.05735801263444,17.703681463057148,0.15608777123305648,-37.83826726584693,-36.77015286721416,-299.52629493087574,-403.28597936948773
371,9.311354045228233,5.191484221930404,21.51837574388847,32.046931958982924,9.769117358927993,30.826229789116898,27.16412327951883,18.619208090456663,12.057933927426786,-1.674965483565979,26.24859665211931,-22.884665684988136,-17.544093691824283,16.33039152195787,6.564774163029679,0.6138510849328154,-8.99917850276212,-49.892701193273915,-42.11072486037801,-281.3683501541186,-402.67562828455476
375,16.177803750724618,6.259598620563175,17.551093691823894,31.894344187749667,-6.2525986205635675,27.011535508285576,15.872628208258108,0.7664388561660683,-54.47033433027149,-1.674965483565979,23.65460454115401,-60.42125740836837,-18.1544447767573,19.382146946622928,-129.54351777703195,-17.23891814935778,-18.459620319223802,-55.23327318643776,-46.07800691244258,-24.715718939787177,-401.7601016571552
379,18.771795861689917,8.548415189061968,20.60284911648895,31.436580874049913,1.834553254798839,24.722718939786784,28.537413220618106,6.717361934262934,-33.7183974425491,0.46126331369956236,35.709038468580985,-34.32874852748211,-19.222559175390067,22.28131460005473,-103.29842112491245,-13.11904832605995,-14.950101580858986,-45.467655827509574,-42.87366371654428,150.30245466475395,-400.84457502975573
383,13.73639941099257,9.769117358927993,26.70635996581907,29.758115390484125,24.11236785485377,25.638245567186296,47.916060167241234,30.063290932950636,47.76347239600798,2.139728797265345,38.6082061220128,22.586490142521242,-18.76479586169031,21.670963515121723,53.256632160405076,8.548415189061968,-1.21720216986622,-30.81922978911729,-32.80287081514958,38.455618350779545,-399.6238728598897
387,7.327713019195945,8.853590731528476,28.07964990691835,27.011535508285576,31.436580874049913,24.417543397320273,48.526411252174235,39.82890829187882,80.72243098239062,0.9190266273993212,30.673642017883648,39.98149606311207,-18.917383632923563,18.161444776756905,131.0763954893641,18.31403254799016,4.428545365764139,-29.445939848018014,-26.394184423352957,-184.01735210730325,-398.40317069002367
391,8.701002960295222,8.395827417828716,23.349428998687504,24.875306711020034,16.177803750724618,19.07697140415642,27.621886593218584,23.196841227454254,22.739077913754492,-1.674965483565979,24.264955626087023,-5.794835306863808,-20.443261345256094,15.567452665791604,28.99517653431786,3.5130187383646216,-6.100010849330315,-42.72107594531102,-29.140764305551507,-197.29248820459628,-396.7247052064579
395,15.567452665791604,8.395827417828716,18.466620319223413,24.875306711020034,-2.285316568498991,15.262277123325099,12.21052169866004,2.139728797265345,-48.36682348094138,-1.9801410260324848,25.18048225348654,-55.53844872890427,-21.053612430189105,18.92438363292317,-118.86237379070425,-15.71304043702525,-19.52773471785657,-51.8763422193062,-32.345107501449824,42.880663716543886,-395.19882749412534
398,17.39850592059064,3.6656065095978745,18.92438363292317,25.790833338419553,-2.4379043397322437,18.008857005523648,20.90802465895546,3.2078431958981155,-39.05896943571295,-0.1490877712334494,30.673642017883648,-42.41590040284452,-21.20620020142236,24.417543397320273,-118.25202270577122,-13.729399410992963,-20.138085802789586,-44.85730474257657,-28.683000991851753,246.4327505417033,-393.3677742393263
402,11.294995071260521,1.9871410260320919,24.264955626087023,26.401184423352564,16.48297929319112,22.586490142521242,40.74443491927834,25.485657795953042,39.52373274941232,2.139728797265345,32.50469527268268,15.414864894558352,-21.96913905758862,25.485657795953042,31.894344187749667,7.938064104128956,-8.846590731528869,-31.276993102817052,-21.053612430189105,164.18794184697998,-391.38413321329404
406,4.428545365764139,6.717361934262934,27.927062135685095,25.18048225348654,28.84258876308461,20.60284911648895,45.016892513809424,39.82890829187882,82.55348423718965,1.3767899410990798,30.063290932950636,39.82890829187882,-22.42690237128838,21.365787972655212,130.1608688619646,21.060612430188712,-2.132728797265738,-29.59852761925127,-18.001857005524045,-82.54648423719004,-389.40049218726176
410,6.4121863917964275,7.632888561662451,24.722718939786784,24.570131168553527,17.093330378124136,17.856269234290398,27.011535508285576,28.232237678151602,34.48833629871497,-1.369789941099473,19.83991026032269,-2.132728797265738,-22.732077913754885,18.771795861689917,47.76347239600798,9.616529587694739,-9.762117358928386,-42.56848817407777,-21.663963515122113,-154.4153244880522,-387.1116756187629
414,15.109689352091845,2.444904339731851,20.4502613452557,26.70635996581907,-1.369789941099473,20.14508580278919,11.294995071260521,7.938064104128956,-41.04261046174524,-1.9801410260324848,11.600170613727029,-52.33410553300595,-22.121726828821874,21.670963515121723,-104.36653552354522,-9.762117358928386,-21.511375743888863,-54.01257101657174,-27.004535508285965,55.24027318643736,-384.8228590502641
418,19.534734717856182,0.003499999999803549,22.586490142521242,28.99517653431786,0.7664388561660683,21.670963515121723,19.22955917538967,7.327713019195945,-44.70471697134331,0.30867554246630946,22.739077913754492,-45.162480285043074,-19.985498031556332,25.333070024719795,-125.27106018250088,-10.219880672628143,-21.35878797265561,-50.350464506973665,-29.29335207678476,274.3563126773886,-382.68663025299855
422,15.720040437024858,3.0552554246648627,29.147764305551117,30.063290932950636,21.976139057588227,20.297673574022443,40.59184714804509,28.99517653431786,29.60552761925088,2.139728797265345,38.303030579546295,6.107010849329922,-16.933742606891276,25.943421109652807,15.567452665791604,11.600170613727029,-7.778476332896096,-36.61756509598091,-26.2415966521197,216.22037183751922,-380.39781368449974
426,9.311354045228233,2.750079882198356,32.199519730216174,29.147764305551117,34.18316075624847,20.90802465895546,48.526411252174235,44.40654142887641,82.55348423718965,1.2242021698658272,39.98149606311207,34.79351184118148,-15.255277123325492,24.11236785485377,129.55051777703153,29.60552761925088,2.750079882198356,-32.03993195898332,-23.647604541154404,-37.99085503708018,-378.2615848872343
430,10.22688067262775,-3.0482554246652556,29.147764305551117,27.469298821985337,24.264955626087023,21.213200201421962,32.80987081514919,33.87798521378196,44.25395365764315,-1.369789941099473,29.147764305551117,1.834553254798839,-16.32339152195826,22.28131460005473,66.53176825769809,21.823551286354977,-2.285316568498991,-41.95813708914475,-26.699359965819465,-153.65238563188592,-375.8201805475022
434,18.161444776756905,-0.30167554246670236,25.027894482253288,28.537413220618106,6.107010849329922,17.093330378124136,15.872628208258108,12.057933927426786,-31.73475641651681,-2.285316568498991,23.807192312387265,-48.21423570970812,-16.781154835658022,24.570131168553527,-89.41293394268642,1.834553254798839,-13.424223868526456,-51.26599113437319,-31.88734418775006,12.820872783593051,-373.5313639790034
438,22.12872682882148,12.21052169866004,24.875306711020034,31.436580874049913,2.750079882198356,15.720040437024858,21.365787972655212,7.175125247962693,-44.094365886410294,-0.30167554246670236,27.469298821985337,-41.19519823297849,-15.102689352092238,29.30035207678437,-134.42632645649604,-2.8956676534320023,-14.339750495925975,-45.62024359874283,-32.03993195898332,231.6317367320778,-371.3951351817379
441,17.245918149357387,15.872628208258108,29.758115390484125,32.199519730216174,20.4502613452557,22.12872682882148,42.72807594531063,26.70635996581907,25.333070024719795,1.9871410260320919,31.436580874049913,16.177803750724618,-14.797513809625734,30.21587870418389,-6.557774163030072,13.431223868526063,-2.132728797265738,-29.75111539048452,-26.394184423352957,205.69181562242477,-369.10631861323907
445,9.921705130161246,7.02253747672944,33.4202219000822,30.521054246650394,35.709038468580985,25.333070024719795,53.40921993163834,44.71171697134291,85.91041520432121,2.139728797265345,39.98149606311207,49.594525650807014,-15.865628208258503,25.485657795953042,121.92112921536892,29.30035207678437,7.938064104128956,-24.41054339732067,-23.037253456221393,-41.8055493179115,-366.81750204474025
449,9.769117358927993,3.818194280831127,30.063290932950636,29.60552761925088,27.011535508285576,20.297673574022443,39.98149606311207,37.54009172338003,60.12308186590147,-0.4542633136999553,38.150442808313045,19.83991026032269,-16.17080375072501,21.213200201421962,79.80690435499109,23.95978008362052,3.0552554246648627,-35.549450697348135,-26.08900888088645,-194.2407327799312,-364.68127324747473
453,18.161444776756905,10.074292901394498,25.333070024719795,31.589168645283163,7.175125247962693,16.48297929319112,21.51837574388847,16.025215979491364,-14.18716272469272,-2.132728797265738,25.027894482253288,-33.870985213782355,-15.865628208258503,23.807192312387265,-75.98521007416016,5.038896450697151,-9.304354045228626,-46.993533539842105,-29.903703161717775,-55.23327318643776,-362.392456678976
457,23.95978008362052,8.395827417828716,25.638245567186296,33.87798521378196,2.292316568498598,16.78815483565763,23.807192312387265,8.853590731528476,-36.77015286721416,-0.7594388561664611,29.60552761925088,-42.56848817407777,-14.492338267159225,29.758115390484125,-143.12382941679144,-1.0646143986329673,-13.424223868526456,-45.162480285043074,-29.445939848018014,188.4493974730672,-360.1036401104771
461,20.4502613452557,0.7664388561660683,31.436580874049913,34.18316075624847,19.07697140415642,18.619208090456663,43.7961903439434,26.401184423352564,25.943421109652807,1.6819654835655862,43.33842703024364,4.581133136997392,-12.813872783593444,31.131405331583405,-31.88734418775006,16.025215979491364,-4.116369823298026,-32.19251973021657,-25.17348225348693,208.43839550462332,-357.66223577074504
465,14.194162724692328,1.6819654835655862,36.47197732474726,33.26763412884895,36.624565095980515,21.060612430188712,56.91873867000315,46.085006912442196,92.62427713858433,2.292316568498598,43.033251487777136,46.23759468367545,-13.424223868526456,27.011535508285576,108.6459931180759,34.79351184118148,6.259598620563175,-23.3424289986879,-21.816551286355367,-24.10536785485416,-354.9156558885465
469,14.194162724692328,7.632888561662451,35.251275154881235,32.199519730216174,32.96245858638244,20.755436887722205,45.77983136997569,41.507373775444606,74.924095675527,-0.30167554246670236,35.709038468580985,24.722718939786784,-14.950101580858986,22.739077913754492,90.33546057008554,30.826229789116898,2.292316568498598,-29.903703161717775,-23.800192312387654,-192.2570917538989,-352.32166377758125
473,21.060612430188712,11.14240730002727,30.36846647541714,32.80987081514919,12.6682850123598,17.551093691823894,24.570131168553527,19.83991026032269,-1.827553254799232,-2.285316568498991,30.826229789116898,-32.65028304391633,-13.729399410992963,25.485657795953042,-61.64195957823439,11.447582842493775,-10.982819528794408,-41.8055493179115,-28.37782544938524,-59.96349409466861,-349.42249612414946
477,27.16412327951883,12.6682850123598,29.30035207678437,35.556450697347735,4.886308679463898,16.025215979491364,22.28131460005473,9.769117358927993,-36.46497732474765,-1.21720216986622,34.94609961241473,-45.772831369976075,-12.661285012360192,33.26763412884895,-148.31181363872204,3.5130187383646216,-17.39150592059103,-40.73743491927873,-28.5304132206185,210.87979984435538,-346.37074069948443
480,26.24859665211931,11.905346156193533,35.098687383647984,38.303030579546295,22.739077913754492,21.365787972655212,41.65996154667786,24.875306711020034,17.703681463057148,1.3767899410990798,48.221235709707734,3.360430967131369,-12.508697241126939,37.84526726584653,-52.4866933042392,19.382146946622928,-8.38882741782911,-25.020894482253677,-22.579490142521635,275.7296026184879,-343.1663975035861
484,20.90802465895546,9.463941816461487,41.2021982329781,39.21855720694581,43.18583925901039,28.84258876308461,57.37650198370291,46.695357997375204,90.94581165501855,2.292316568498598,56.7661508987699,54.324746559037855,-11.898346156193925,36.47197732474726,99.94849015778048,40.43925937681184,3.97078205206438,-13.271636097293204,-15.560452665791995,65.00589054536555,-339.6568787652213
488,19.687322489089436,10.68464398632751,41.04961046174485,39.52373274941232,40.8970226905116,29.30035207678437,49.747113422040265,47.15312131107497,86.67335406048747,0.003499999999803549,49.441937879573764,44.864304742576174,-11.593170613727422,33.4202219000822,109.40893197424217,40.8970226905116,3.360430967131369,-18.1544447767573,-15.255277123325492,-126.49176235236689,-335.9947722556232
492,26.70635996581907,14.957101580858593,37.54009172338003,41.2021982329781,23.502016769920754,25.943421109652807,29.91070316171738,28.07964990691835,11.600170613727029,-2.285316568498991,39.21855720694581,-13.271636097293204,-12.203521698660433,35.556450697347735,-30.971817560350548,22.586490142521242,-8.846590731528869,-31.429580874050302,-20.443261345256094,-35.85462623981464,-332.33266574602516
496,33.4202219000822,15.414864894558352,37.38750395214678,43.94877811517665,15.262277123325099,25.027894482253288,25.943421109652807,15.720040437024858,-35.85462623981464,-1.674965483565979,43.491014801476894,-40.43225937681223,-12.05093392742718,42.11772486037761,-133.20562428663,11.75275838496028,-16.47597929319151,-35.39686292611488,-22.42690237128838,214.0841430402537,-328.36538369396055
500,32.80987081514919,13.126048326059557,41.354786004211356,45.016892513809424,27.621886593218584,26.24859665211931,43.33842703024364,28.07964990691835,7.938064104128956,0.9190266273993212,56.30838758507014,1.9871410260320919,-10.677643986327903,47.00053353984171,-54.775509872738,25.027894482253288,-9.609529587695132,-23.49501676992115,-17.08633037812453,281.52793792535147,-324.09292609942946
504,27.621886593218584,8.701002960295222,46.3901824549087,44.40654142887641,45.77983136997569,28.384825449384852,60.12308186590147,50.96781559190628,85.30006411938821,1.9871410260320919,63.93777614673279,54.93509764397086,-8.694002960295615,46.54277022614195,105.28906215094435,47.45829685354147,2.750079882198356,-9.609529587695132,-9.151766273995372,72.94045464949471,-319.9730562761317
508,24.570131168553527,7.632888561662451,46.54277022614195,42.42290040284412,46.695357997375204,27.011535508285576,54.324746559037855,54.78250987273761,92.31910159611783,0.003499999999803549,57.986853068635924,50.05228896450677,-9.151766273995372,42.72807594531063,136.26437971129468,50.35746450697328,2.5974921109651037,-10.982819528794408,-6.2525986205635675,-133.96856314279628,-315.7005986816006
512,29.30035207678437,18.92438363292317,42.11772486037761,41.81254931791111,29.30035207678437,23.349428998687504,33.1150463576157,36.31938955351401,21.51837574388847,-2.285316568498991,44.40654142887641,-2.743079882198749,-10.52505621509465,42.57548817407738,3.6656065095978745,32.046931958982924,-10.52505621509465,-22.274314600055128,-8.236239646595855,-70.3394625385298,-311.4281410870695
516,37.38750395214678,26.70635996581907,39.98149606311207,44.55912920010966,16.94074260689088,24.722718939786784,25.943421109652807,20.755436887722205,-32.19251973021657,-1.369789941099473,47.30570908230822,-32.65028304391633,-8.694002960295615,48.526411252174235,-116.1157939085057,18.31403254799016,-20.29067357402284,-26.54677219458621,-8.541415189062361,175.7846124607072,-307.1556834925384
520,37.99785503707978,21.823551286354977,43.491014801476894,47.15312131107497,26.24859665211931,31.589168645283163,41.81254931791111,29.452939848017625,3.6656065095978745,1.0716143986325743,60.12308186590147,1.0716143986325743,-5.33707199316405,53.56180770287159,-62.710073976867164,28.690000991851356,-13.881987182226215,-15.407864894558744,-3.963782052064773,292.9720207678455,-303.1884014404738
523,31.131405331583405,16.48297929319112,49.13676233710726,47.45829685354147,46.695357997375204,36.92974063844702,60.73343295083448,52.64628107547207,83.62159863582242,2.444904339731851,64.2429516891993,56.30838758507014,-3.963782052064773,50.96781559190628,95.21826924954964,50.96781559190628,1.6819654835655862,-2.285316568498991,1.2242021698658272,135.80661639759492,-298.91594384594276
527,25.943421109652807,16.635567064424375,48.373823480940985,44.25395365764315,50.35746450697328,34.64092406994823,57.986853068635924,58.74979192480219,100.5588412427135,0.7664388561660683,60.428257408367976,59.817906323434954,-5.4896597643973015,42.57548817407738,144.19894381542386,55.24027318643736,7.02253747672944,-8.236239646595855,-1.9801410260324848,-110.62263414410859,-294.94866179387816
531,28.232237678151602,17.856269234290398,41.2021982329781,40.43925937681184,31.131405331583405,26.24859665211931,35.556450697347735,38.6082061220128,31.283993102816655,-1.674965483565979,49.89970119327352,3.97078205206438,-8.846590731528869,36.777152867213765,18.92438363292317,35.251275154881235,-2.5904921109654966,-28.37782544938524,-12.661285012360192,-150.60063020722086,-290.8287919705803
535,33.4202219000822,16.33039152195787,35.709038468580985,39.52373274941232,13.126048326059557,19.07697140415642,23.196841227454254,17.856269234290398,-34.48133629871536,-1.369789941099473,43.94877811517665,-39.97449606311247,-11.593170613727422,36.31938955351401,-120.08307596057027,15.262277123325099,-13.729399410992963,-39.516732749412704,-21.35878797265561,55.54544872890388,-286.86150991851576
539,32.80987081514919,11.447582842493775,37.69267949461328,40.286671605578576,19.07697140415642,19.382146946622928,35.86162623981424,22.433902371287985,-12.05093392742718,0.6138510849328154,47.76347239600798,-19.985498031556332,-12.508697241126939,35.40386292611449,-94.29574262215051,18.161444776756905,-11.593170613727422,-32.19251973021657,-22.884665684988136,197.1469004333626,-282.7416400952179
543,26.401184423352564,8.548415189061968,43.33842703024364,39.37114497817907,39.52373274941232,24.417543397320273,55.08768541520411,44.864304742576174,66.98953157139783,2.139728797265345,54.93509764397086,34.94609961241473,-12.966460554826696,31.436580874049913,58.44461638233569,38.150442808313045,1.0716143986325743,-19.52773471785657,-18.1544447767573,18.92438363292317,-278.62177027192
547,20.90802465895546,12.21052169866004,43.64360257271015,36.16680178228076,45.62724359874244,24.570131168553527,54.477334330271106,52.951456617938575,95.3708570207829,1.2242021698658272,58.902379696035446,48.373823480940985,-14.18716272469272,27.011535508285576,127.87205229346577,46.085006912442196,5.496659764396909,-19.832910260323082,-15.71304043702525,-239.25412529374083,-274.5019004486223
551,20.755436887722205,15.567452665791604,36.01421401104749,32.50469527268268,27.316711050752083,18.466620319223413,32.50469527268268,34.33574852748172,35.709038468580985,-1.0646143986329673,43.033251487777136,-5.794835306863808,-16.018215979491757,25.790833338419553,17.551093691823894,28.99517653431786,-6.2525986205635675,-33.10804635761608,-20.443261345256094,-83.46201086458954,-270.22944285409113
555,24.722718939786784,8.243239646595462,28.07964990691835,30.978817560350155,5.344071993163657,13.27863609729281,16.33039152195787,11.447582842493775,-33.4132219000826,-1.5223777123327258,23.65460454115401,-55.99621204260403,-15.865628208258503,28.84258876308461,-131.984922116764,7.938064104128956,-18.1544447767573,-41.19519823297849,-25.17348225348693,503.5431450697345,-265.9569852595601
559,24.11236785485377,0.15608777123305648,26.858947737052326,29.91070316171738,5.191484221930404,12.820872783593051,24.417543397320273,11.75275838496028,-21.663963515122113,0.003499999999803549,29.30035207678437,-36.3123895535144,-15.255277123325492,32.046931958982924,-128.4754033783992,8.853590731528476,-14.797513809625734,-33.10804635761608,-22.42690237128838,930.9414922940759,-261.5319398937957
562,15.414864894558352,3.360430967131369,30.826229789116898,26.70635996581907,23.349428998687504,15.872628208258108,42.42290040284412,32.96245858638244,55.24027318643736,1.9871410260320919,40.286671605578576,20.4502613452557,-16.32339152195826,30.36846647541714,19.99249803155594,28.537413220618106,-1.674965483565979,-20.29067357402284,-16.32339152195826,762.0268295388651,-257.1068945280314
566,6.869949705496186,6.259598620563175,31.74175641651642,21.670963515121723,32.199519730216174,16.635567064424375,43.64360257271015,44.55912920010966,92.92945268105083,1.3767899410990798,34.48833629871497,39.06596943571256,-18.1544447767573,23.502016769920754,109.86669528794194,37.69267949461328,3.0552554246648627,-21.663963515122113,-16.781154835658022,269.3209162266913,-252.68184916226707
570,7.785476332895703,0.15608777123305648,26.70635996581907,17.245918149357387,18.466620319223413,10.989819528794015,23.196841227454254,30.673642017883648,39.82890829187882,-1.21720216986622,22.739077913754492,-3.2008431958985084,-20.138085802789586,17.39850592059064,21.51837574388847,22.586490142521242,-7.320713019196338,-35.39686292611488,-23.800192312387654,-0.1490877712334494,-247.95162825403625
574,14.957101580858593,-2.8956676534320023,21.976139057588227,16.33039152195787,-0.1490877712334494,4.886308679463898,6.869949705496186,10.22688067262775,-35.702038468581385,-1.827553254799232,19.83991026032269,-48.519411252174635,-21.20620020142236,18.008857005523648,-130.0012810907317,1.529377712332333,-20.748436887722594,-43.78919034394379,-29.140764305551507,73.70339350566098,-243.2214073458054
578,18.31403254799016,3.360430967131369,23.807192312387265,18.008857005523648,1.529377712332333,7.02253747672944,14.804513809625341,9.921705130161246,-36.46497732474765,-0.1490877712334494,28.690000991851356,-32.80287081514958,-20.443261345256094,22.28131460005473,-146.17558484145653,0.6138510849328154,-22.42690237128838,-36.46497732474765,-27.309711050752473,174.71649806207444,-238.33859866634128
582,14.804513809625341,5.038896450697151,30.826229789116898,20.4502613452557,23.044253456221,11.75275838496028,35.709038468580985,32.35210750144943,38.6082061220128,1.834553254798839,42.270312631610864,27.469298821985337,-17.23891814935778,24.417543397320273,-1.9801410260324848,21.823551286354977,-11.593170613727422,-20.90102465895585,-19.52773471785657,57.0713264412364,-233.30320221564398
586,10.379468443861004,-0.6068510849332083,34.64092406994823,21.365787972655212,36.777152867213765,10.532056215094258,43.18583925901039,48.67899902340749,90.33546057008554,1.529377712332333,46.23759468367545,52.951456617938575,-12.813872783593444,23.349428998687504,111.69774854274095,37.99785503707978,-3.963782052064773,-17.08633037812453,-14.034574953459467,-178.82936788537265,-227.9626302224801
590,11.447582842493775,0.6138510849328154,31.283993102816655,20.755436887722205,27.316711050752083,8.395827417828716,27.469298821985337,37.84526726584653,51.272991134372795,-1.21720216986622,33.26763412884895,6.869949705496186,-9.151766273995372,23.502016769920754,47.45829685354147,28.690000991851356,-10.830231757561156,-28.683000991851753,-16.32339152195826,-266.5673363444931,-222.62205822931622
594,19.382146946622928,5.954423078096669,26.553772194585815,21.823551286354977,9.15876627399498,11.294995071260521,10.22688067262775,14.957101580858593,-24.257955626087416,-2.132728797265738,21.823551286354977,-46.840945768608854,-6.862949705496579,27.469298821985337,-105.12947437971147,8.395827417828716,-22.42690237128838,-37.685679494613666,-21.053612430189105,-102.68807003997944,-216.9763106936859
598,24.570131168553527,2.750079882198356,25.943421109652807,24.264955626087023,7.02253747672944,16.48297929319112,14.499338267158832,9.311354045228233,-34.78651184118187,-0.1490877712334494,31.894344187749667,-37.99085503708018,-4.574133136997785,32.199519730216174,-141.14018839075916,5.344071993163657,-22.274314600055128,-31.276993102817052,-21.511375743888863,111.54516077150771,-211.02538761558904
602,20.14508580278919,-0.9120266273997142,30.521054246650394,25.333070024719795,25.790833338419553,22.28131460005473,33.57280967131545,27.774474364451837,36.47197732474726,2.139728797265345,48.373823480940985,16.025215979491364,-2.132728797265738,33.87798521378196,-6.40518639179682,25.485657795953042,-8.541415189062361,-16.17080375072501,-15.560452665791995,91.25098719748507,-205.22705230872543
605,12.515697241126546,1.3767899410990798,33.7253974425487,23.65460454115401,41.354786004211356,24.417543397320273,42.270312631610864,44.55912920010966,95.06568147831639,1.834553254798839,49.747113422040265,49.441937879573764,-0.4542633136999553,32.199519730216174,124.51512132633421,43.033251487777136,3.2078431958981155,-8.236239646595855,-10.219880672628143,-154.87308780175192,-199.27612923062856
609,11.447582842493775,4.428545365764139,30.063290932950636,20.755436887722205,33.87798521378196,20.14508580278919,26.70635996581907,36.92974063844702,63.93777614673279,-0.9120266273997142,35.40386292611449,23.044253456221,0.003499999999803549,30.521054246650394,83.62159863582242,36.31938955351401,-0.7594388561664611,-13.729399410992963,-11.898346156193925,-302.2728748130743,-193.32520615253168
613,18.92438363292317,9.463941816461487,24.875306711020034,20.60284911648895,14.957101580858593,17.551093691823894,6.259598620563175,15.414864894558352,-14.18716272469272,-2.4379043397322437,21.365787972655212,-29.59852761925127,1.2242021698658272,33.7253974425487,-70.18687476729656,17.245918149357387,-12.05093392742718,-23.189841227454647,-16.018215979491757,-142.20830278939195,-187.67945861690131
617,24.417543397320273,10.532056215094258,24.570131168553527,21.51837574388847,11.14240730002727,19.534734717856182,7.632888561662451,7.938064104128956,-37.22791618091391,-0.6068510849332083,27.011535508285576,-36.00721401104789,3.6656065095978745,39.82890829187882,-134.12115091402956,11.600170613727029,-15.407864894558744,-21.35878797265561,-15.255277123325492,117.64867162083783,-182.18629885250422
621,20.297673574022443,2.5974921109651037,29.452939848017625,20.297673574022443,29.147764305551117,22.891665684987746,27.011535508285576,25.333070024719795,25.638245567186296,1.834553254798839,45.932419141208946,15.720040437024858,4.886308679463898,41.354786004211356,-21.511375743888863,27.774474364451837,-5.4896597643973015,-7.473300790429591,-9.45694181646188,131.99192211676362,-176.84572685934037
625,12.6682850123598,-5.4896597643973015,33.7253974425487,17.245918149357387,46.84794576860846,23.65460454115401,38.303030579546295,45.32206805627593,89.41993394268603,2.444904339731851,54.93509764397086,61.496371807000735,4.581133136997392,37.23491618091352,115.05467950987253,44.55912920010966,4.428545365764139,0.7664388561660683,-4.574133136997785,-113.97956511124013,-171.65774263740977
629,11.75275838496028,-4.116369823298026,31.894344187749667,14.194162724692328,41.81254931791111,19.83991026032269,25.943421109652807,41.65996154667786,68.05764597003062,-0.4542633136999553,44.25395365764315,42.57548817407738,3.360430967131369,32.96245858638244,91.09839942625182,39.21855720694581,0.30867554246630946,-8.541415189062361,-5.642247535630556,-292.65984522537934,-166.77493395794565
633,18.466620319223413,1.529377712332333,27.469298821985337,14.041574953459074,22.586490142521242,17.39850592059064,5.801835306863415,19.99249803155594,-11.135407300027662,-2.5904921109654966,32.65728304391594,-17.84926923429079,3.2078431958981155,33.87798521378196,-62.55748620563391,18.31403254799016,-13.11904832605995,-22.42690237128838,-9.762117358928386,-172.11550595110953,-161.8921252784816
637,25.027894482253288,5.801835306863415,27.469298821985337,16.78815483565763,16.33039152195787,20.90802465895546,5.496659764396909,9.921705130161246,-45.162480285043074,-1.21720216986622,40.43925937681184,-38.44861835077994,5.496659764396909,39.98149606311207,-146.63334815515628,9.616529587694739,-18.612208090457052,-22.884665684988136,-9.762117358928386,85.30006411938821,-157.16190437025074
641,25.638245567186296,5.191484221930404,33.4202219000822,18.92438363292317,33.87798521378196,26.858947737052326,26.401184423352564,25.943421109652807,10.989819528794015,1.2242021698658272,56.15579981383689,7.327713019195945,8.243239646595462,44.25395365764315,-48.82458679464114,26.09600888088606,-8.083651875362602,-9.151766273995372,-3.5060187383650145,139.46872290719298,-152.58427123325316
645,20.60284911648895,-0.7594388561664611,38.455618350779545,17.39850592059064,53.256632160405076,29.147764305551117,41.65996154667786,47.15312131107497,81.33278206732363,1.9871410260320919,59.207555238501946,56.003212042603636,8.395827417828716,41.354786004211356,99.79590238654723,45.932419141208946,4.581133136997392,1.9871410260320919,2.292316568498598,-80.71543098239101,-147.70146255378904
648,18.161444776756905,1.9871410260320919,36.01421401104749,13.73639941099257,50.20487673574003,26.24859665211931,31.283993102816655,45.62724359874244,72.0249280220952,-0.1490877712334494,49.28935010834051,41.96513708914436,6.4121863917964275,36.31938955351401,101.474367870113,43.33842703024364,2.292316568498598,-1.827553254799232,1.834553254798839,-282.1312890102849,-142.81865387432495
652,25.333070024719795,12.515697241126546,30.978817560350155,14.194162724692328,31.283993102816655,22.28131460005473,10.532056215094258,25.485657795953042,-3.5060187383650145,-1.9801410260324848,43.7961903439434,-13.424223868526456,7.632888561662451,37.84526726584653,-42.263312631611264,24.11236785485377,-9.762117358928386,-10.219880672628143,-0.9120266273997142,-199.7338925443283,-137.63066965239437
656,33.4202219000822,13.583811639759316,29.91070316171738,18.619208090456663,21.060612430188712,23.95978008362052,7.480300790429198,14.041574953459074,-46.840945768608854,-1.0646143986329673,51.12040336313954,-31.88734418775006,10.989819528794015,44.864304742576174,-142.51347833185847,14.194162724692328,-15.407864894558744,-6.862949705496579,-0.1490877712334494,46.84794576860846,-132.2900976592305
660,31.436580874049913,5.954423078096669,32.80987081514919,21.060612430188712,32.65728304391594,29.758115390484125,24.417543397320273,26.401184423352564,-0.9120266273997142,1.2242021698658272,63.78518837549954,9.311354045228233,12.363109469893292,47.15312131107497,-66.06700494399871,26.24859665211931,-8.541415189062361,7.327713019195945,5.038896450697151,117.49608384960457,-126.64435012360015
664,22.28131460005473,2.139728797265345,35.556450697347735,19.22955917538967,50.51005227820653,27.621886593218584,38.6082061220128,47.15312131107497,74.16115681936074,2.139728797265345,70.04128699606291,58.13944083986918,11.14240730002727,43.033251487777136,86.52076628925423,44.55912920010966,2.139728797265345,16.025215979491364,9.769117358927993,-91.24398719748547,-120.84601481673653
668,16.78815483565763,4.123369823297633,33.1150463576157,15.872628208258108,49.747113422040265,19.99249803155594,30.673642017883648,48.98417456587399,77.21291224402579,0.30867554246630946,56.003212042603636,55.08768541520411,9.006178502761728,38.6082061220128,111.08739745780795,44.55912920010966,2.9026676534316094,9.616529587694739,9.616529587694739,-313.71695765556825,-114.58991619617316
672,20.60284911648895,3.6656065095978745,27.16412327951883,15.109689352091845,29.60552761925088,20.90802465895546,8.395827417828716,29.147764305551117,3.360430967131369,-1.827553254799232,36.16680178228076,1.0716143986325743,8.548415189061968,39.21855720694581,-24.563131168553923,25.638245567186296,-7.168125247963085,-3.0482554246652556,5.496659764396909,-270.8397939390242,-108.3338175756098
676,27.316711050752083,0.9190266273993212,23.349428998687504,16.48297929319112,14.194162724692328,26.09600888088606,-0.4542633136999553,11.905346156193533,-51.723754448072945,-1.674965483565979,33.87798521378196,-32.345107501449824,9.463941816461487,43.7961903439434,-144.19194381542425,10.989819528794015,-14.950101580858986,-7.015537476729833,3.5130187383646216,-28.5304132206185,-101.61995564134666
680,27.774474364451837,-3.6586065095982674,25.027894482253288,16.78815483565763,22.12872682882148,27.16412327951883,14.041574953459074,18.92438363292317,-16.018215979491757,0.6138510849328154,46.085006912442196,0.15608777123305648,10.379468443861004,46.23759468367545,-88.95517062898666,19.22955917538967,-9.151766273995372,1.0716143986325743,5.954423078096669,92.16651382488459,-94.75350593585028
684,19.687322489089436,-3.2008431958985084,28.384825449384852,14.804513809625341,40.74443491927834,27.469298821985337,31.131405331583405,39.52373274941232,63.63260060426629,2.444904339731851,57.0713264412364,49.89970119327352,10.379468443861004,43.33842703024364,68.05764597003062,39.37114497817907,3.818194280831127,9.463941816461487,9.006178502761728,-68.20323374126427,-87.73446845912063
688,11.600170613727029,5.038896450697151,26.401184423352564,10.532056215094258,42.72807594531063,26.70635996581907,25.943421109652807,43.033251487777136,79.65431658375785,0.9190266273993212,53.56180770287159,46.23759468367545,8.548415189061968,37.69267949461328,114.90209173863927,43.33842703024364,6.717361934262934,3.97078205206438,6.717361934262934,-299.52629493087574,-80.4102554399245
691,12.973460554826303,7.480300790429198,19.382146946622928,5.649247535630163,24.11236785485377,21.365787972655212,2.750079882198356,22.739077913754492,11.447582842493775,-1.674965483565979,36.777152867213765,-10.219880672628143,6.107010849329922,34.94609961241473,-9.151766273995372,25.638245567186296,-3.6586065095982674,-11.135407300027662,-0.1490877712334494,-292.81243299661264,-73.08604242072836
695,20.14508580278919,-0.30167554246670236,14.346750495925582,4.123369823297633,7.938064104128956,14.499338267158832,-9.304354045228626,3.360430967131369,-50.350464506973665,-1.827553254799232,31.74175641651642,-48.21423570970812,4.886308679463898,37.38750395214678,-141.75053947569216,8.853590731528476,-13.881987182226215,-18.917383632923563,-5.031896450697544,-50.197876735740415,-65.30406608783247
699,21.060612430188712,-8.38882741782911,15.567452665791604,5.191484221930404,14.804513809625341,12.515697241126546,2.750079882198356,9.311354045228233,-23.800192312387654,0.7664388561660683,46.23759468367545,-22.121726828821874,5.038896450697151,40.286671605578576,-108.02864203314327,14.499338267158832,-10.830231757561156,-10.830231757561156,-3.5060187383650145,111.23998522904121,-57.52208975493656
703,15.109689352091845,-11.593170613727422,20.755436887722205,5.191484221930404,36.16680178228076,17.703681463057148,21.365787972655212,33.1150463576157,56.4609753563034,2.292316568498598,53.40921993163834,33.87798521378196,6.259598620563175,38.455618350779545,48.221235709707734,35.709038468580985,2.444904339731851,2.750079882198356,2.444904339731851,-20.29067357402284,-49.43493787957416
707,10.074292901394498,-12.966460554826696,21.670963515121723,2.292316568498598,43.7961903439434,23.196841227454254,20.4502613452557,42.880663716543886,83.92677417828892,0.9190266273993212,46.085006912442196,48.221235709707734,6.564774163029679,33.87798521378196,117.80125939207109,43.33842703024364,7.785476332895703,3.2078431958981155,4.733720908230644,-266.71992411572637,-41.19519823297849
711,12.057933927426786,-12.508697241126939,15.720040437024858,-0.30167554246670236,27.469298821985337,22.12872682882148,-1.369789941099473,26.401184423352564,23.349428998687504,-1.674965483565979,42.880663716543886,-2.132728797265738,6.259598620563175,30.978817560350155,9.616529587694739,26.24859665211931,-2.743079882198749,-9.762117358928386,0.003499999999803549,-296.7797150486772,-32.65028304391633
715,17.551093691823894,-8.236239646595855,10.379468443861004,-1.369789941099473,9.311354045228233,16.177803750724618,-16.32339152195826,5.191484221930404,-45.92541914120933,-1.674965483565979,36.16680178228076,-49.2823501083409,5.038896450697151,31.589168645283163,-135.03667754142907,5.191484221930404,-16.17080375072501,-18.76479586169031,-5.947423078097062,-66.67735602893173,-23.800192312387654
719,17.703681463057148,-1.9801410260324848,10.379468443861004,-2.4379043397322437,12.820872783593051,14.499338267158832,-6.710361934263327,5.954423078096669,-34.17616075624886,0.15608777123305648,29.147764305551117,-27.61488659321898,3.97078205206438,32.96245858638244,-126.03399903866712,5.038896450697151,-16.781154835658022,-11.745758384960673,-5.642247535630556,124.36253355510097,-14.797513809625734
723,11.447582842493775,-1.5223777123327258,13.73639941099257,-4.116369823298026,32.65728304391594,18.008857005523648,11.75275838496028,26.858947737052326,43.18583925901039,2.139728797265345,42.270312631610864,28.690000991851356,3.97078205206438,31.894344187749667,25.943421109652807,23.95978008362052,-4.879308679464291,2.5974921109651037,1.0716143986325743,34.33574852748172,-5.642247535630556
727,5.344071993163657,-7.015537476729833,14.041574953459074,-6.710361934263327,41.507373775444606,19.22955917538967,13.27863609729281,37.84526726584653,81.48536983855688,1.529377712332333,50.96781559190628,43.18583925901039,3.818194280831127,27.774474364451837,116.88573276467156,34.03057298501521,1.834553254798839,3.818194280831127,4.275957594530887,-199.27612923062856,3.6656065095978745
730,6.107010849329922,-9.151766273995372,9.006178502761728,-9.304354045228626,27.469298821985337,16.48297929319112,-7.168125247963085,23.044253456221,28.84258876308461,-1.0646143986329673,35.251275154881235,-2.285316568498991,2.9026676534316094,24.875306711020034,27.621886593218584,19.83991026032269,-6.557774163030072,-9.609529587695132,-0.7594388561664611,-241.84811740470613,13.126048326059557
734,13.126048326059557,-7.168125247963085,3.97078205206438,-9.304354045228626,9.311354045228233,11.75275838496028,-23.952780083620908,1.0716143986325743,-46.53577022614235,-1.9801410260324848,24.875306711020034,-48.06164793847487,2.9026676534316094,27.621886593218584,-123.44000692770184,-0.30167554246670236,-19.069971404156817,-18.917383632923563,-6.2525986205635675,-9.45694181646188,22.433902371287985
738,16.33039152195787,-9.762117358928386,4.428545365764139,-7.931064104129349,10.837231757560764,10.989819528794015,-15.865628208258503,-0.4542633136999553,-46.840945768608854,-0.30167554246670236,33.7253974425487,-33.26063412884933,3.5130187383646216,32.50469527268268,-136.5625552537616,0.003499999999803549,-19.680322489089825,-10.982819528794408,-4.26895759453128,217.288486236152,31.74175641651642
742,10.68464398632751,-16.628567064424768,9.769117358927993,-7.320713019196338,30.36846647541714,18.771795861689917,4.886308679463898,19.99249803155594,28.537413220618106,1.834553254798839,43.64360257271015,24.570131168553527,4.886308679463898,34.79351184118148,8.853590731528476,21.51837574388847,-7.625888561662843,4.581133136997392,3.818194280831127,164.64570516067974,40.8970226905116
746,5.344071993163657,-18.001857005524045,13.27863609729281,-7.931064104129349,43.033251487777136,26.09600888088606,11.905346156193533,34.18316075624847,78.28102664265857,1.529377712332333,44.1013658864099,53.56180770287159,6.107010849329922,32.65728304391594,118.4116104770041,37.08232840968027,0.15608777123305648,7.327713019195945,8.090651875362209,-69.88169922483004,50.05228896450677
750,8.853590731528476,-12.203521698660433,11.600170613727029,-9.304354045228626,34.18316075624847,24.417543397320273,-3.963782052064773,23.349428998687504,37.38750395214678,-1.0646143986329673,34.33574852748172,15.414864894558352,5.496659764396909,29.452939848017625,49.28935010834051,27.316711050752083,-7.015537476729833,-5.33707199316405,3.360430967131369,-150.1428668935211,58.74979192480219
754,18.771795861689917,-4.421545365764532,8.395827417828716,-9.91470513016164,16.94074260689088,19.687322489089436,-20.90102465895585,1.9871410260320919,-37.685679494613666,-1.9801410260324848,27.621886593218584,-36.46497732474765,5.496659764396909,32.50469527268268,-104.51912329477847,8.090651875362209,-18.76479586169031,-15.71304043702525,-2.132728797265738,50.66264004943978,67.29470711386435
758,23.349428998687504,4.733720908230644,8.853590731528476,-9.304354045228626,14.499338267158832,21.365787972655212,-15.102689352092238,-2.743079882198749,-46.53577022614235,-0.1490877712334494,33.57280967131545,-30.36146647541753,7.938064104128956,39.37114497817907,-140.83501284829268,6.717361934262934,-18.917383632923563,-10.830231757561156,-2.132728797265738,284.4271055787833,75.53444676046
762,18.008857005523648,9.769117358927993,13.73639941099257,-7.625888561662843,31.74175641651642,26.553772194585815,5.496659764396909,16.025215979491364,24.722718939786784,2.139728797265345,36.01421401104749,22.891665684987746,10.532056215094258,40.74443491927834,-8.236239646595855,27.16412327951883,-5.794835306863808,3.818194280831127,1.834553254798839,255.58801681569847,83.46901086458917
766,11.75275838496028,3.6656065095978745,17.093330378124136,-6.40518639179682,45.932419141208946,30.521054246650394,15.262277123325099,33.1150463576157,82.24830869472315,1.834553254798839,36.31938955351401,54.62992210150436,11.14240730002727,35.86162623981424,116.88573276467156,43.491014801476894,5.954423078096669,8.395827417828716,2.444904339731851,9.006178502761728,91.25098719748507
770,12.973460554826303,-3.6586065095982674,13.431223868526063,-5.031896450697544,37.08232840968027,27.927062135685095,1.2242021698658272,24.722718939786784,51.272991134372795,-0.7594388561664611,37.38750395214678,22.586490142521242,10.837231757560764,32.046931958982924,69.73611145359641,35.556450697347735,3.0552554246648627,-4.26895759453128,-3.3534309671317617,-128.4754033783992,98.72778798791447
773,18.92438363292317,-1.674965483565979,7.327713019195945,-2.5904921109654966,16.025215979491364,16.94074260689088,-17.84926923429079,2.444904339731851,-26.2415966521197,-1.9801410260324848,31.283993102816655,-32.345107501449824,9.921705130161246,33.87798521378196,-85.44565189062183,15.109689352091845,-8.083651875362602,-16.17080375072501,-9.609529587695132,22.739077913754492,106.05200100711059
777,21.823551286354977,-0.9120266273997142,5.954423078096669,0.46126331369956236,9.769117358927993,11.905346156193533,-15.71304043702525,-4.726720908231037,-48.36682348094138,-0.7594388561664611,28.99517653431786,-35.549450697348135,8.395827417828716,36.92974063844702,-143.73418050172444,7.938064104128956,-11.135407300027662,-11.440582842494168,-11.898346156193925,256.503543443098,113.2236262550735
781,18.771795861689917,-7.931064104129349,10.837231757560764,3.818194280831127,26.24859665211931,20.297673574022443,3.818194280831127,13.583811639759316,16.33039152195787,1.6819654835655862,34.79351184118148,18.161444776756905,8.853590731528476,35.86162623981424,-24.257955626087416,24.570131168553527,0.003499999999803549,4.886308679463898,-8.846590731528869,252.53626139103343,120.39525150303639
785,12.515697241126546,-12.813872783593444,15.262277123325099,5.801835306863415,41.96513708914436,27.621886593218584,14.957101580858593,33.26763412884895,81.94313315225664,1.9871410260320919,40.59184714804509,61.9541351207005,10.532056215094258,32.35210750144943,116.1227939085053,44.25395365764315,12.973460554826303,16.48297929319112,-3.5060187383650145,4.275957594530887,127.56687675099927
789,10.532056215094258,-11.135407300027662,12.820872783593051,5.344071993163657,35.709038468580985,25.027894482253288,1.9871410260320919,28.99517653431786,61.343784035767484,-0.4542633136999553,35.251275154881235,40.74443491927834,10.379468443861004,30.521054246650394,94.60791816461662,41.04961046174485,12.363109469893292,12.973460554826303,-2.8956676534320023,-171.810330408643,134.73850199896216
793,17.703681463057148,-6.2525986205635675,8.395827417828716,6.4121863917964275,16.94074260689088,21.060612430188712,-16.628567064424768,8.243239646595462,-17.08633037812453,-2.285316568498991,21.823551286354977,-14.18716272469272,9.311354045228233,33.26763412884895,-55.23327318643776,21.365787972655212,1.6819654835655862,3.360430967131369,-6.557774163030072,-56.75915089877029,142.0627150181583
797,25.638245567186296,-1.0646143986329673,8.395827417828716,10.22688067262775,10.22688067262775,21.823551286354977,-13.57681163975971,-0.7594388561664611,-49.58752565080741,-1.0646143986329673,21.823551286354977,-24.563131168553923,10.22688067262775,39.52373274941232,-134.12115091402956,13.27863609729281,-2.8956676534320023,5.038896450697151,-7.015537476729833,184.6347031922359,149.38692803735444
801,23.807192312387265,4.123369823297633,13.126048326059557,11.75275838496028,25.18048225348654,26.858947737052326,8.395827417828716,15.109689352091845,6.869949705496186,1.2242021698658272,36.92974063844702,21.976139057588227,11.600170613727029,42.880663716543886,-33.26063412884933,28.537413220618106,6.717361934262934,20.14508580278919,-1.827553254799232,227.0541035950802,156.86372882778383
805,16.33039152195787,7.480300790429198,17.39850592059064,8.548415189061968,43.18583925901039,29.452939848017625,23.65460454115401,35.86162623981424,76.75514893032604,2.292316568498598,45.932419141208946,63.93777614673279,10.074292901394498,38.91338166447931,114.13915288247301,47.30570908230822,18.466620319223413,29.758115390484125,3.6656065095978745,12.6682850123598,164.3405296182132
809,13.583811639759316,7.02253747672944,16.025215979491364,3.6656065095978745,40.74443491927834,22.28131460005473,15.109689352091845,35.098687383647984,66.68435602893133,0.003499999999803549,34.18316075624847,50.20487673574003,6.259598620563175,33.1150463576157,112.918450712607,44.55912920010966,16.78815483565763,23.044253456221,3.5130187383646216,-173.1836203497423,171.9699181798759
812,19.382146946622928,5.649247535630163,10.379468443861004,0.46126331369956236,21.213200201421962,13.583811639759316,-4.879308679464291,14.499338267158832,-10.219880672628143,-2.132728797265738,18.619208090456663,-2.8956676534320023,3.2078431958981155,33.87798521378196,-33.26063412884933,24.11236785485377,5.038896450697151,10.379468443861004,-1.674965483565979,-72.62827910702859,179.59930674153853
816,25.485657795953042,-0.6068510849332083,6.717361934262934,-0.7594388561664611,9.769117358927993,14.194162724692328,-9.304354045228626,0.9190266273993212,-54.928097643971256,-1.21720216986622,22.12872682882148,-24.563131168553923,1.0716143986325743,36.92974063844702,-133.20562428663,11.600170613727029,-2.285316568498991,6.717361934262934,-5.184484221930797,203.55558682515925,187.2286953032012
820,22.12872682882148,-7.778476332896096,8.701002960295222,-2.743079882198749,21.823551286354977,17.856269234290398,7.327713019195945,12.515697241126546,-8.99917850276212,1.3767899410990798,36.01421401104749,14.499338267158832,-1.674965483565979,34.94609961241473,-53.249632160405476,21.976139057588227,4.886308679463898,16.025215979491364,-3.81119428083152,311.7403166295355,194.5529083223973
824,13.431223868526063,-2.8956676534320023,12.363109469893292,-6.100010849330315,40.43925937681184,16.48297929319112,23.502016769920754,33.26763412884895,65.61624163029857,2.444904339731851,41.96513708914436,59.97049409466822,-4.879308679464291,29.30035207678437,99.33813907284748,40.59184714804509,17.245918149357387,24.417543397320273,-0.7594388561664611,128.63499114963204,202.0297091128267
828,9.769117358927993,-0.30167554246670236,10.074292901394498,-9.45694181646188,39.06596943571256,12.515697241126546,16.78815483565763,33.57280967131545,67.90505819879736,0.30867554246630946,36.31938955351401,48.98417456587399,-8.38882741782911,24.875306711020034,119.63231264687012,40.43925937681184,18.771795861689917,19.07697140415642,-1.5223777123327258,-80.25766766869125,209.65909767448935
832,13.888987182225822,-8.694002960295615,3.818194280831127,-9.762117358928386,18.92438363292317,10.532056215094258,-5.642247535630556,12.6682850123598,-4.879308679464291,-1.827553254799232,23.196841227454254,-6.862949705496579,-9.45694181646188,25.333070024719795,-17.84926923429079,20.4502613452557,8.090651875362209,7.02253747672944,-5.184484221930797,-14.950101580858986,217.13589846491877
836,18.466620319223413,-11.135407300027662,-0.7594388561664611,-7.015537476729833,4.581133136997392,10.074292901394498,-14.64492603839248,-3.5060187383650145,-57.674677526169816,-1.21720216986622,11.600170613727029,-35.39686292611488,-8.846590731528869,29.91070316171738,-133.815975371563,5.038896450697151,-0.6068510849332083,3.360430967131369,-6.557774163030072,252.9940247047332,224.61269925534816
840,14.041574953459074,-7.473300790429591,-0.9120266273997142,-5.33707199316405,12.6682850123598,11.447582842493775,-0.7594388561664611,4.123369823297633,-21.35878797265561,1.0716143986325743,15.567452665791604,-1.9801410260324848,-8.083651875362602,31.131405331583405,-75.37485898922715,11.905346156193533,3.360430967131369,12.21052169866004,-3.0482554246652556,373.53836397900307,232.08950004577753
844,4.581133136997392,-11.745758384960673,1.3767899410990798,-6.862949705496579,29.91070316171738,11.294995071260521,14.957101580858593,23.044253456221,54.93509764397086,2.5974921109651037,28.07964990691835,47.916060167241234,-8.236239646595855,25.638245567186296,79.19655327005809,29.147764305551117,14.041574953459074,21.365787972655212,2.444904339731851,187.3812830744344,239.56630083620695
848,-0.30167554246670236,-19.985498031556332,-0.9120266273997142,-10.067292901394891,31.131405331583405,7.327713019195945,9.311354045228233,25.790833338419553,66.53176825769809,1.0716143986325743,22.891665684987746,47.916060167241234,-8.99917850276212,18.771795861689917,121.46336590166914,29.91070316171738,14.651926038392087,16.78815483565763,3.360430967131369,-59.96349409466861,247.04310162663631
852,3.360430967131369,-22.274314600055128,-7.320713019196338,-11.898346156193925,12.057933927426786,5.038896450697151,-12.813872783593444,5.954423078096669,-3.81119428083152,-1.369789941099473,7.480300790429198,-7.778476332896096,-9.151766273995372,17.245918149357387,-4.574133136997785,9.616529587694739,1.9871410260320919,3.97078205206438,-1.369789941099473,-41.65296154667825,254.82507795953225
855,9.15876627399498,-15.71304043702525,-10.982819528794408,-11.745758384960673,-4.26895759453128,3.6656065095978745,-23.189841227454647,-13.11904832605995,-66.67735602893173,-1.21720216986622,4.428545365764139,-45.00989251380982,-9.304354045228626,19.99249803155594,-135.1892653126623,-8.99917850276212,-9.91470513016164,0.46126331369956236,-5.642247535630556,211.33756315805516,262.30187874996165
859,9.311354045228233,-8.38882741782911,-9.151766273995372,-11.135407300027662,2.292316568498598,4.123369823297633,-10.067292901394891,-8.38882741782911,-41.95813708914475,0.7664388561660683,7.02253747672944,-14.034574953459467,-9.609529587695132,20.14508580278919,-98.56820021668159,-5.184484221930797,-8.083651875362602,10.989819528794015,-5.642247535630556,347.44585509811674,270.08385508285755
863,3.6656065095978745,-10.52505621509465,-4.421545365764532,-10.982819528794408,22.586490142521242,10.074292901394498,8.701002960295222,13.583811639759316,36.92974063844702,2.139728797265345,14.346750495925582,38.6082061220128,-8.236239646595855,16.635567064424375,56.61356312753665,14.194162724692328,4.123369823297633,21.976139057588227,-2.743079882198749,176.24237577440695,277.86583141575346
867,-1.674965483565979,-20.90102465895585,-4.26895759453128,-11.135407300027662,28.232237678151602,12.6682850123598,8.243239646595462,21.51837574388847,63.78518837549954,0.9190266273993212,21.060612430188712,43.94877811517665,-7.015537476729833,12.363109469893292,122.68406807153517,22.12872682882148,9.616529587694739,19.99249803155594,-2.285316568498991,-70.79722585222957,285.495219977416
871,1.0716143986325743,-23.800192312387654,-9.609529587695132,-10.52505621509465,11.14240730002727,7.938064104128956,-11.745758384960673,3.6656065095978745,3.6656065095978745,-1.5223777123327258,9.769117358927993,-6.100010849330315,-7.168125247963085,9.921705130161246,12.6682850123598,6.869949705496186,0.30867554246630946,5.801835306863415,-8.694002960295615,-67.1351193426315,293.12460853907874
875,8.548415189061968,-18.459620319223802,-13.57681163975971,-8.694002960295615,-6.100010849330315,4.581133136997392,-24.41054339732067,-17.39150592059103,-64.69371500289945,-1.827553254799232,-2.4379043397322437,-50.65564004944018,-8.846590731528869,10.074292901394498,-130.30645663319822,-12.203521698660433,-11.287995071260914,-4.879308679464291,-18.001857005524045,166.62934618671204,300.7539971007414
879,8.090651875362209,-20.138085802789586,-12.356109469893685,-7.473300790429591,-2.132728797265738,6.869949705496186,-13.57681163975971,-15.255277123325492,-51.26599113437319,0.003499999999803549,8.853590731528476,-33.10804635761608,-11.440582842494168,8.853590731528476,-117.94684716330471,-10.372468443861397,-9.609529587695132,1.529377712332333,-22.121726828821874,314.6394842829674,308.23079789117077
883,0.9190266273993212,-23.037253456221393,-7.320713019196338,-7.015537476729833,17.245918149357387,10.532056215094258,6.717361934262934,6.259598620563175,26.70635996581907,1.9871410260320919,26.24859665211931,22.12872682882148,-13.57681163975971,2.9026676534316094,33.87798521378196,8.701002960295222,2.444904339731851,14.194162724692328,-21.663963515122113,180.20965782647153,315.5550109103669
887,-3.2008431958985084,-17.84926923429079,-6.40518639179682,-6.862949705496579,25.485657795953042,9.463941816461487,10.22688067262775,16.78815483565763,63.78518837549954,1.529377712332333,16.94074260689088,40.134083834345326,-16.018215979491757,-5.184484221930797,119.78490041810338,16.635567064424375,7.327713019195945,12.21052169866004,-24.41054339732067,-99.78890238654763,322.7266361583298
891,-1.0646143986329673,-10.830231757561156,-11.745758384960673,-6.862949705496579,10.989819528794015,5.649247535630163,-8.38882741782911,1.529377712332333,9.463941816461487,-0.9120266273997142,-6.557774163030072,-8.846590731528869,-19.37514694662332,-9.91470513016164,26.70635996581907,0.15608777123305648,-2.285316568498991,-3.0482554246652556,-33.26063412884933,-217.12889846491916,329.8982614062927
895,5.038896450697151,-7.778476332896096,-17.544093691824283,-5.031896450697544,-8.38882741782911,4.886308679463898,-22.732077913754885,-19.52773471785657,-65.30406608783247,-1.674965483565979,-9.609529587695132,-60.42125740836837,-22.274314600055128,-9.91470513016164,-122.21930475783581,-21.35878797265561,-14.034574953459467,-11.745758384960673,-41.50037377544499,10.074292901394498,336.91729888302234
898,7.632888561662451,-8.083651875362602,-17.69668146305754,-2.285316568498991,-8.694002960295615,5.954423078096669,-12.508697241126939,-19.52773471785657,-63.93077614673318,0.15608777123305648,0.15608777123305648,-44.55212920011006,-23.49501676992115,-8.694002960295615,-130.76421994689798,-22.884665684988136,-12.813872783593444,-3.6586065095982674,-42.56848817407777,441.74509772026704,343.63116081728543
902,2.9026676534316094,-11.898346156193925,-13.57681163975971,-0.4542633136999553,9.006178502761728,9.769117358927993,9.463941816461487,1.834553254798839,11.447582842493775,2.444904339731851,4.275957594530887,14.804513809625341,-23.3424289986879,-10.52505621509465,14.804513809625341,-4.116369823298026,1.3767899410990798,11.447582842493775,-37.533091723380416,715.1823837702564,350.4976105227818
906,-3.5060187383650145,-18.001857005524045,-12.05093392742718,-0.9120266273997142,19.22955917538967,12.057933927426786,15.720040437024858,15.720040437024858,58.44461638233569,1.6819654835655862,4.581133136997392,40.286671605578576,-25.17348225348693,-15.255277123325492,120.24266373180312,7.327713019195945,10.989819528794015,14.957101580858593,-35.09168738364837,645.7549478591262,357.211472457045
910,-2.132728797265738,-19.680322489089825,-15.71304043702525,-2.743079882198749,8.090651875362209,8.395827417828716,-1.21720216986622,4.428545365764139,14.041574953459074,-1.0646143986329673,2.292316568498598,-1.827553254799232,-29.59852761925127,-19.680322489089825,49.13676233710726,-6.710361934263327,4.733720908230644,3.97078205206438,-40.73743491927873,455.32540936002664,363.77274662007477
914,6.564774163029679,-13.424223868526456,-19.069971404156817,-2.5904921109654966,-9.609529587695132,3.97078205206438,-16.933742606891276,-16.933742606891276,-62.40489843440066,-1.5223777123327258,-8.38882741782911,-53.70739547410524,-32.65028304391633,-18.612208090457052,-101.61995564134666,-28.683000991851753,-7.320713019196338,-5.794835306863808,-48.06164793847487,429.38548825037356,370.33402078310473
918,10.22688067262775,-7.625888561662843,-17.544093691824283,-1.21720216986622,-9.304354045228626,3.0552554246648627,-9.609529587695132,-20.29067357402284,-71.56016470839583,0.30867554246630946,-8.38882741782911,-43.78919034394379,-33.4132219000826,-14.797513809625734,-132.13750988799725,-32.345107501449824,-8.236239646595855,-0.30167554246670236,-47.90906016724162,465.70137780388785,376.74270717490134
922,5.496659764396909,-7.931064104129349,-11.440582842494168,-1.369789941099473,12.057933927426786,6.259598620563175,12.057933927426786,0.15608777123305648,-2.285316568498991,2.292316568498598,13.583811639759316,16.025215979491364,-33.56580967131585,-14.950101580858986,3.2078431958981155,-15.71304043702525,4.886308679463898,15.872628208258108,-38.29603057954669,264.1329320047607,383.3039813379312
926,0.30867554246630946,-10.372468443861397,-7.168125247963085,-2.743079882198749,27.621886593218584,6.869949705496186,21.976139057588227,17.245918149357387,51.73075444807255,1.834553254798839,25.790833338419553,50.96781559190628,-34.32874852748211,-19.222559175390067,126.65135012359974,-3.3534309671317617,15.109689352091845,22.739077913754492,-27.004535508285965,-122.06671698660256,389.8652555009611
930,1.2242021698658272,-5.4896597643973015,-9.45694181646188,-2.8956676534320023,18.619208090456663,1.9871410260320919,7.938064104128956,8.853590731528476,17.551093691823894,-0.7594388561664611,14.041574953459074,19.382146946622928,-35.702038468581385,-22.42690237128838,77.36550001525906,-14.492338267159225,10.22688067262775,14.651926038392087,-21.511375743888863,-294.6434862514117,396.426529663991
934,9.15876627399498,5.496659764396909,-13.57681163975971,-0.1490877712334494,0.30867554246630946,-0.7594388561664611,-9.609529587695132,-12.05093392742718,-60.26866963713511,-2.132728797265738,3.0552554246648627,-31.88734418775006,-36.77015286721416,-18.612208090457052,-75.98521007416016,-36.77015286721416,-1.21720216986622,6.4121863917964275,-18.459620319223802,-91.39657496871871,402.98780382702085
938,15.109689352091845,7.785476332895703,-13.57681163975971,2.750079882198356,-2.285316568498991,5.649247535630163,-5.33707199316405,-17.544093691824283,-80.105079897458,-0.30167554246670236,10.989819528794015,-35.702038468581385,-38.29603057954669,-12.356109469893685,-131.37457103183098,-44.094365886410294,-3.6586065095982674,10.074292901394498,-14.492338267159225,173.19062034974192,409.701665761284
941,10.68464398632751,2.292316568498598,-9.91470513016164,3.0552554246648627,14.804513809625341,16.177803750724618,14.346750495925582,-0.1490877712334494,-15.102689352092238,2.139728797265345,26.09600888088606,11.447582842493775,-40.127083834345726,-13.11904832605995,-12.813872783593444,-28.988176534318256,6.4121863917964275,22.433902371287985,-10.52505621509465,148.47140140995492,416.5681154667804
945,2.9026676534316094,-0.1490877712334494,-7.320713019196338,1.0716143986325743,30.063290932950636,20.4502613452557,24.722718939786784,17.551093691823894,47.76347239600798,2.444904339731851,29.30035207678437,51.73075444807255,-41.65296154667825,-20.138085802789586,121.76854144413566,-12.05093392742718,16.025215979491364,29.452939848017625,-10.830231757561156,-108.3338175756098,423.2819774010435
949,3.818194280831127,1.0716143986325743,-8.541415189062361,0.30867554246630946,25.485657795953042,20.60284911648895,13.27863609729281,12.973460554826303,25.790833338419553,-0.1490877712334494,17.39850592059064,28.99517653431786,-42.11072486037801,-24.41054339732067,93.84497930845038,-14.797513809625734,12.363109469893292,20.90802465895546,-16.47597929319151,-255.42842904446562,430.3010148777731
953,12.973460554826303,10.22688067262775,-10.982819528794408,3.5130187383646216,8.090651875362209,23.196841227454254,-3.5060187383650145,-7.015537476729833,-49.43493787957416,-1.9801410260324848,11.447582842493775,-28.835588763085006,-40.73743491927873,-21.35878797265561,-57.674677526169816,-30.36146647541753,0.15608777123305648,7.327713019195945,-23.49501676992115,-115.20026728110618,437.472640125736
957,19.687322489089436,20.60284911648895,-11.135407300027662,7.785476332895703,1.0716143986325743,26.09600888088606,-1.5223777123327258,-16.32339152195826,-78.57920218512547,-0.4542633136999553,20.297673574022443,-41.04261046174524,-40.279671605578976,-17.23891814935778,-133.6633876003298,-35.85462623981464,-6.100010849330315,7.175125247962693,-27.920062135685487,121.00560258796939,444.4916776024656
961,17.245918149357387,19.22955917538967,-7.625888561662843,9.616529587694739,15.109689352091845,27.316711050752083,18.161444776756905,-1.674965483565979,-20.90102465895585,2.292316568498598,24.722718939786784,7.175125247962693,-40.43225937681223,-18.612208090457052,-31.58216864528356,-19.985498031556332,1.0716143986325743,19.534734717856182,-27.61488659321898,142.21530278939156,451.968478392895
965,9.463941816461487,13.431223868526063,-3.0482554246652556,9.769117358927993,32.65728304391594,26.70635996581907,33.26763412884895,18.008857005523648,49.441937879573764,2.5974921109651037,21.365787972655212,53.8669832453381,-39.2115572069462,-25.020894482253677,113.52880179754,-1.0646143986329673,11.905346156193533,28.07964990691835,-27.15712327951922,-86.97152960295438,459.1401036408579
969,7.785476332895703,14.346750495925582,-3.2008431958985084,9.769117358927993,29.758115390484125,24.570131168553527,26.09600888088606,16.177803750724618,39.676320520645575,-0.1490877712334494,14.957101580858593,40.286671605578576,-38.29603057954669,-33.26063412884933,108.79858088930916,-5.642247535630556,10.532056215094258,22.12872682882148,-34.17616075624886,-269.7716795403914,466.61690443128737
973,16.177803750724618,23.502016769920754,-7.625888561662843,11.447582842493775,10.22688067262775,22.433902371287985,7.632888561662451,-4.879308679464291,-36.15980178228115,-2.132728797265738,10.532056215094258,-16.32339152195826,-37.22791618091391,-36.3123895535144,-38.9063816644797,-29.445939848018014,-2.5904921109654966,8.701002960295222,-47.75647239600837,-160.06107202368256,474.09370522171673
977,23.95978008362052,31.589168645283163,-9.91470513016164,13.73639941099257,-0.30167554246670236,22.586490142521242,4.886308679463898,-18.001857005524045,-77.96885110019245,-0.9120266273997142,11.600170613727029,-40.127083834345726,-35.549450697348135,-33.870985213782355,-136.8677307962281,-45.315068056276324,-11.287995071260914,4.733720908230644,-58.285028611102824,100.5588412427135,481.57050601214615
980,21.976139057588227,30.36846647541714,-6.100010849330315,15.414864894558352,12.515697241126546,26.553772194585815,22.891665684987746,-5.33707199316405,-30.05629093295103,1.6819654835655862,19.22955917538967,-2.5904921109654966,-34.17616075624886,-32.345107501449824,-54.165158787805,-36.77015286721416,-4.879308679464291,16.635567064424375,-54.165158787805,163.1198274483472,489.19989457380876
984,16.78815483565763,20.90802465895546,0.003499999999803549,16.78815483565763,32.046931958982924,30.21587870418389,39.37114497817907,16.635567064424375,43.64360257271015,2.750079882198356,30.978817560350155,45.62724359874244,-33.26063412884933,-32.65028304391633,99.94849015778048,-19.069971404156817,8.243239646595462,29.147764305551117,-36.3123895535144,-62.40489843440066,496.8292831354714
988,16.78815483565763,16.33039152195787,0.003499999999803549,18.161444776756905,32.199519730216174,27.621886593218584,32.96245858638244,18.619208090456663,43.94877811517665,0.9190266273993212,32.65728304391594,41.65996154667786,-33.10804635761608,-30.81922978911729,120.24266373180312,-18.459620319223802,10.837231757560764,26.70635996581907,-19.985498031556332,-283.5045789513842,504.3060839259008
992,22.586490142521242,27.774474364451837,-5.33707199316405,18.619208090456663,12.6682850123598,22.891665684987746,11.294995071260521,-1.21720216986622,-29.29335207678476,-1.5223777123327258,20.4502613452557,-10.830231757561156,-32.955458586382825,-24.868306711020423,-17.08633037812453,-35.702038468581385,0.6138510849328154,15.414864894558352,-13.881987182226215,-216.06078406628635,511.93547248756346
996,29.147764305551117,37.23491618091352,-8.541415189062361,18.619208090456663,-0.7594388561664611,22.891665684987746,3.97078205206438,-16.781154835658022,-80.56284321115776,-1.369789941099473,5.649247535630163,-38.601206122013195,-32.345107501449824,-18.76479586169031,-130.76421994689798,-48.519411252174635,-7.015537476729833,12.057933927426786,-13.729399410992963,40.43925937681184,519.2596855067596
1000,28.384825449384852,32.50469527268268,-5.947423078097062,19.22955917538967,9.006178502761728,25.638245567186296,19.22955917538967,-7.320713019196338,-42.41590040284452,0.9190266273993212,7.632888561662451,-1.0646143986329673,-32.65028304391633,-17.08633037812453,-67.74547042756451,-39.05896943571295,-0.4542633136999553,21.823551286354977,-12.813872783593444,134.43332645649565,526.5838985259558
1004,21.060612430188712,27.469298821985337,-1.0646143986329673,19.534734717856182,28.232237678151602,26.858947737052326,36.16680178228076,14.957101580858593,34.94609961241473,2.5974921109651037,27.316711050752083,55.39286095767062,-33.10804635761608,-19.52773471785657,90.1828727988523,-18.1544447767573,13.583811639759316,34.18316075624847,-10.067292901394891,-70.49205030976306,533.7555237739185
1008,17.093330378124136,30.521054246650394,-1.369789941099473,18.466620319223413,30.063290932950636,25.485657795953042,32.046931958982924,20.297673574022443,48.068647938474484,0.7664388561660683,34.03057298501521,57.22391421246965,-33.4132219000826,-23.037253456221393,132.60227320169662,-12.966460554826696,17.551093691823894,34.03057298501521,-9.91470513016164,-309.7496756035037,540.4693857081818
1012,21.823551286354977,33.7253974425487,-6.557774163030072,18.31403254799016,11.600170613727029,21.213200201421962,11.905346156193533,2.139728797265345,-19.832910260323082,-1.674965483565979,19.83991026032269,2.292316568498598,-33.7183974425491,-22.579490142521635,6.4121863917964275,-27.920062135685487,7.632888561662451,22.12872682882148,-13.881987182226215,-271.60273279519043,547.0306598712117
1016,27.621886593218584,31.74175641651642,-10.372468443861397,20.60284911648895,-3.6586065095982674,18.92438363292317,2.292316568498598,-14.797513809625734,-78.42661441389221,-1.5223777123327258,10.837231757560764,-31.429580874050302,-34.17616075624886,-17.08633037812453,-120.99860258796978,-39.05896943571295,-1.0646143986329673,15.109689352091845,-17.544093691824283,-18.001857005524045,552.9815829493085
1020,25.943421109652807,25.333070024719795,-8.541415189062361,21.213200201421962,3.2078431958981155,19.83991026032269,14.804513809625341,-7.168125247963085,-50.503052278206916,0.6138510849328154,16.635567064424375,-0.30167554246670236,-34.63392406994862,-14.492338267159225,-79.95249212622474,-28.072649906918738,3.818194280831127,21.670963515121723,-18.917383632923563,99.94849015778048,558.6273304849389
1023,18.466620319223413,16.48297929319112,-3.963782052064773,18.619208090456663,22.28131460005473,20.14508580278919,31.894344187749667,15.109689352091845,26.24859665211931,2.444904339731851,22.433902371287985,52.64628107547207,-35.702038468581385,-20.138085802789586,76.60256115909279,-6.557774163030072,15.872628208258108,31.436580874049913,-19.680322489089825,-84.68271303445559,563.6627269356362
1027,13.431223868526063,11.905346156193533,-3.81119428083152,14.957101580858593,27.16412327951883,18.31403254799016,29.91070316171738,21.976139057588227,48.67899902340749,1.2242021698658272,21.51837574388847,58.29202861110243,-37.685679494613666,-29.59852761925127,139.46872290719298,-1.9801410260324848,18.31403254799016,28.690000991851356,-23.952780083620908,-335.07924562822365,568.3929478438671
1031,16.78815483565763,14.194162724692328,-8.38882741782911,14.346750495925582,11.600170613727029,16.177803750724618,9.769117358927993,4.886308679463898,-13.271636097293204,-1.21720216986622,13.431223868526063,2.9026676534316094,-38.601206122013195,-34.78651184118187,26.553772194585815,-20.90102465895585,7.632888561662451,15.414864894558352,-31.73475641651681,-329.28091032136007,572.3602298959316
1035,24.722718939786784,15.414864894558352,-10.830231757561156,16.48297929319112,-3.3534309671317617,14.041574953459074,-1.21720216986622,-13.424223868526456,-79.64731658375824,-1.21720216986622,10.074292901394498,-42.87366371654428,-38.14344280831344,-34.023572985015605,-113.8269773400069,-41.65296154667825,-3.81119428083152,6.564774163029679,-37.99085503708018,-80.86801875362427,576.1749241767629
1039,26.24859665211931,16.025215979491364,-9.151766273995372,16.48297929319112,1.2242021698658272,11.294995071260521,10.074292901394498,-10.219880672628143,-64.2359516891997,0.9190266273993212,20.14508580278919,-21.20620020142236,-40.279671605578976,-33.56580967131585,-97.95784913174859,-41.04261046174524,-2.4379043397322437,11.600170613727029,-37.99085503708018,86.21559074678773,579.3792673726612
1043,18.619208090456663,19.99249803155594,-5.4896597643973015,12.21052169866004,19.83991026032269,7.938064104128956,27.621886593218584,10.532056215094258,13.126048326059557,2.5974921109651037,29.60552761925088,32.96245858638244,-44.70471697134331,-38.601206122013195,53.104044389171825,-22.732077913754885,8.853590731528476,20.90802465895546,-34.32874852748211,-44.24695365764355,582.278435026093
1047,10.68464398632751,19.687322489089436,-5.4896597643973015,7.327713019195945,28.07964990691835,3.6656065095978745,28.384825449384852,20.60284911648895,49.28935010834051,1.3767899410990798,21.365787972655212,47.15312131107497,-48.21423570970812,-46.688357997375604,136.1117919400614,-14.950101580858986,13.888987182225822,18.161444776756905,-35.549450697348135,-305.32463023773937,584.8724271370584
1051,12.6682850123598,15.567452665791604,-9.91470513016164,4.886308679463898,14.651926038392087,1.6819654835655862,9.311354045228233,5.496659764396909,-2.5904921109654966,-1.0646143986329673,8.090651875362209,0.7664388561660683,-49.58752565080741,-49.58752565080741,40.43925937681184,-30.36146647541753,4.275957594530887,3.0552554246648627,-41.95813708914475,-357.50964799951186,587.1612437055571
1055,21.670963515121723,14.957101580858593,-13.271636097293204,5.801835306863415,-2.5904921109654966,3.2078431958981155,-5.4896597643973015,-15.71304043702525,-71.86534025086233,-1.369789941099473,8.701002960295222,-45.315068056276324,-48.519411252174635,-42.87366371654428,-108.9441686605428,-50.197876735740415,-8.694002960295615,-8.083651875362602,-44.39954142887681,-126.49176235236689,589.450060274056
1059,24.417543397320273,11.905346156193533,-12.661285012360192,7.02253747672944,-1.369789941099473,4.275957594530887,2.444904339731851,-16.628567064424768,-65.15147831659921,0.46126331369956236,17.245918149357387,-31.73475641651681,-46.993533539842105,-34.023572985015605,-116.42096945097221,-50.350464506973665,-10.219880672628143,-4.421545365764532,-38.9063816644797,94.45533039338338,591.5862890713215
1062,17.093330378124136,3.2078431958981155,-8.846590731528869,6.564774163029679,16.635567064424375,3.2078431958981155,20.90802465895546,2.9026676534316094,10.074292901394498,2.292316568498598,22.28131460005473,21.823551286354977,-47.60388462477512,-33.10804635761608,27.774474364451837,-33.10804635761608,-0.7594388561664611,6.564774163029679,-30.36146647541753,25.943421109652807,593.7225178685869
1066,9.616529587694739,2.444904339731851,-7.778476332896096,4.275957594530887,26.24859665211931,1.6819654835655862,24.417543397320273,15.262277123325099,52.49369330423882,1.9871410260320919,18.92438363292317,45.77983136997569,-50.96081559190668,-39.2115572069462,128.02464006469904,-24.41054339732067,3.97078205206438,6.717361934262934,-27.004535508285965,-223.99534817041553,595.7061588946192
1070,9.769117358927993,9.006178502761728,-12.661285012360192,1.3767899410990798,13.431223868526063,-2.4379043397322437,5.038896450697151,2.5974921109651037,3.5130187383646216,-0.7594388561664611,7.938064104128956,2.139728797265345,-54.165158787805,-43.331427030244036,49.89970119327352,-38.44861835077994,-5.947423078097062,-9.45694181646188,-32.03993195898332,-299.2211193884092,597.5372121494183
1074,13.431223868526063,10.074292901394498,-19.222559175390067,-0.4542633136999553,-7.168125247963085,-7.931064104129349,-14.034574953459467,-20.748436887722594,-75.52744676046039,-1.674965483565979,-1.21720216986622,-55.99621204260403,-55.53844872890427,-41.04261046174524,-106.35017654957751,-59.04796746726908,-20.90102465895585,-25.783833338419946,-39.2115572069462,-77.20591224402618,599.2156776329841
1078,12.363109469893292,6.717361934262934,-21.96913905758862,-3.2008431958985084,-12.203521698660433,-11.593170613727422,-11.287995071260914,-26.699359965819465,-85.14047634815535,-0.1490877712334494,2.5974921109651037,-54.775509872738,-57.674677526169816,-39.66932052064596,-138.69878405102713,-61.48937180700113,-24.41054339732067,-24.257955626087416,-42.263312631611264,162.8146519058807,600.7415553453167
1082,5.344071993163657,0.9190266273993212,-19.832910260323082,-7.320713019196338,3.0552554246648627,-13.424223868526456,5.344071993163657,-9.151766273995372,-16.47597929319151,2.139728797265345,10.837231757560764,-3.963782052064773,-61.03160849330137,-45.772831369976075,-5.031896450697544,-43.331427030244036,-14.339750495925975,-10.982819528794408,-41.19519823297849,119.17454933317035,602.1148452864159
1086,-2.285316568498991,-8.694002960295615,-17.69668146305754,-10.830231757561156,15.262277123325099,-17.08633037812453,12.057933927426786,5.954423078096669,35.86162623981424,2.139728797265345,9.006178502761728,26.401184423352564,-64.2359516891997,-55.38586095767102,112.76586294137374,-29.75111539048452,-6.710361934263327,-8.236239646595855,-41.65296154667825,-128.0176400646994,602.8777841425822
1090,-5.031896450697544,-13.271636097293204,-21.053612430189105,-13.11904832605995,4.275957594530887,-21.663963515122113,-3.6586065095982674,-3.3534309671317617,-0.1490877712334494,-0.4542633136999553,-3.0482554246652556,-6.2525986205635675,-67.1351193426315,-60.72643295083486,57.0713264412364,-40.279671605578976,-13.729399410992963,-20.138085802789586,-47.29870908230861,-230.86179787591192,602.8777841425822
1094,0.003499999999803549,-11.135407300027662,-27.15712327951922,-14.64492603839248,-18.001857005524045,-23.037253456221393,-23.49501676992115,-25.326070024720188,-79.34214104129174,-1.827553254799232,-11.287995071260914,-60.87902072206812,-68.81358482619729,-59.3531430097356,-99.33113907284788,-63.015249519333665,-27.61488659321898,-32.19251973021657,-55.23327318643776,-37.99085503708018,602.4200208288825
1098,4.428545365764139,-10.52505621509465,-28.683000991851753,-15.407864894558744,-24.10536785485416,-25.020894482253677,-21.511375743888863,-32.345107501449824,-99.78890238654763,-0.30167554246670236,-8.236239646595855,-63.015249519333665,-69.42393591113029,-56.453975356303786,-152.7368590044864,-70.9498136234628,-31.58216864528356,-30.05629093295103,-59.658318552202104,209.8116854457226,601.1993186590164
1102,0.30867554246630946,-13.57681163975971,-23.952780083620908,-16.018215979491757,-7.931064104129349,-24.715718939787177,-1.827553254799232,-14.64492603839248,-34.78651184118187,2.292316568498598,-2.4379043397322437,-8.694002960295615,-68.50840928373077,-56.301387585070536,-30.36146647541753,-55.53844872890427,-20.29067357402284,-15.560452665791995,-57.36950198370331,197.75725151829565,598.7579143192844
1105,-7.015537476729833,-16.17080375072501,-20.443261345256094,-17.23891814935778,6.717361934262934,-19.832910260323082,8.701002960295222,4.275957594530887,28.07964990691835,2.292316568498598,1.2242021698658272,29.452939848017625,-66.06700494399871,-59.20055523850234,104.0683599810783,-38.9063816644797,-8.083651875362602,-9.609529587695132,-54.928097643971256,-51.418578905606445,595.4009833521528
1109,-8.38882741782911,-14.797513809625734,-23.189841227454647,-19.222559175390067,-0.4542633136999553,-20.138085802789586,-5.184484221930797,-1.827553254799232,3.818194280831127,-0.4542633136999553,-3.963782052064773,-1.0646143986329673,-63.93077614673318,-61.94713512070089,72.33010356456171,-44.094365886410294,-10.830231757561156,-21.663963515122113,-58.742791924802574,-203.54858682515962,590.8233502151553
1113,-1.9801410260324848,-9.762117358928386,-27.767474364452234,-19.52773471785657,-20.138085802789586,-26.2415966521197,-25.17348225348693,-23.952780083620908,-74.45933236182763,-1.827553254799232,-17.69668146305754,-58.89537969603583,-62.710073976867164,-58.590204153569324,-81.32578206732403,-63.473012833033415,-23.037253456221393,-34.17616075624886,-63.015249519333665,-48.06164793847487,585.0250149082916
1117,3.6656065095978745,-10.677643986327903,-28.22523767815199,-18.001857005524045,-27.61488659321898,-27.15712327951922,-24.715718939787177,-33.10804635761608,-102.23030672627968,-0.30167554246670236,-18.612208090457052,-65.60924163029897,-61.33678403576788,-52.1815177617727,-154.7205000305187,-70.6446380809963,-27.46229882198573,-30.66664201788404,-62.09972289193414,220.4928294320503,577.8533896603286
1121,-0.1490877712334494,-18.459620319223802,-24.257955626087416,-17.39150592059103,-13.881987182226215,-21.511375743888863,-6.100010849330315,-17.544093691824283,-40.73743491927873,1.834553254798839,-4.421545365764532,-15.71304043702525,-59.3531430097356,-50.503052278206916,-48.82458679464114,-55.08068541520451,-17.39150592059103,-16.47597929319151,-55.84362427137078,248.56897933896886,569.4610622424997
1125,-9.762117358928386,-20.748436887722594,-20.748436887722594,-18.76479586169031,1.3767899410990798,-18.459620319223802,6.564774163029679,1.6819654835655862,30.673642017883648,2.139728797265345,4.428545365764139,27.927062135685095,-57.827265297403066,-53.70739547410524,95.52344479201614,-35.549450697348135,-5.947423078097062,-9.45694181646188,-50.197876735740415,-7.625888561662843,559.8480326548049
1129,-13.729399410992963,-19.832910260323082,-22.121726828821874,-20.595849116489344,-3.2008431958985084,-21.35878797265561,-3.81119428083152,-0.4542633136999553,20.14508580278919,0.003499999999803549,-5.794835306863808,11.14240730002727,-57.674677526169816,-57.674677526169816,86.97852960295397,-36.61756509598091,-7.931064104129349,-17.69668146305754,-51.571166676839695,-213.77196749778759,549.014300897244
1133,-6.710361934263327,-21.96913905758862,-26.394184423352957,-19.985498031556332,-22.42690237128838,-25.020894482253677,-24.10536785485416,-20.29067357402284,-54.165158787805,-1.5223777123327258,-19.832910260323082,-47.90906016724162,-57.36950198370331,-57.52208975493656,-61.03160849330137,-54.01257101657174,-19.832910260323082,-30.20887870418428,-56.75915089877029,-103.60359666737895,536.8072791985836
1137,-0.1490877712334494,-24.10536785485416,-28.835588763085006,-18.1544447767573,-33.56580967131585,-25.47865779595344,-27.15712327951922,-32.19251973021657,-91.70175051118521,-0.4542633136999553,-15.865628208258503,-72.62827910702859,-55.69103650013753,-53.40221993163873,-154.87308780175192,-62.40489843440066,-26.08900888088645,-33.56580967131585,-58.43761638233608,161.59394973601468,523.5321431012907
1141,-4.574133136997785,-26.699359965819465,-26.2415966521197,-18.1544447767573,-22.274314600055128,-22.274314600055128,-10.372468443861397,-19.985498031556332,-40.73743491927873,1.834553254798839,-1.827553254799232,-34.32874852748211,-54.47033433027149,-50.96081559190668,-68.35582151249751,-48.82458679464114,-18.459620319223802,-24.41054339732067,-55.23327318643776,211.4901509292884,509.18889260536486
1145,-13.11904832605995,-27.767474364452234,-21.96913905758862,-20.138085802789586,-3.963782052064773,-19.52773471785657,4.428545365764139,1.0716143986325743,31.589168645283163,2.750079882198356,0.6138510849328154,12.21052169866004,-54.47033433027149,-53.70739547410524,84.23194972075544,-28.835588763085006,-5.642247535630556,-16.17080375072501,-52.4866933042392,-29.903703161717775,494.0827032532728
1148,-15.865628208258503,-21.20620020142236,-22.884665684988136,-22.579490142521635,-5.031896450697544,-23.037253456221393,-3.2008431958985084,1.2242021698658272,28.537413220618106,0.6138510849328154,-14.950101580858986,3.2078431958981155,-54.62292210150475,-58.132440839869574,99.33813907284748,-28.22523767815199,-5.184484221930797,-22.732077913754885,-56.148799813837286,-246.4257505417037,478.06098727378134
1152,-10.982819528794408,-15.560452665791995,-27.767474364452234,-23.3424289986879,-24.715718939787177,-27.15712327951922,-23.800192312387654,-20.138085802789586,-45.772831369976075,-1.827553254799232,-28.37782544938524,-51.723754448072945,-54.62292210150475,-58.285028611102824,-40.73743491927873,-46.53577022614235,-16.628567064424768,-35.549450697348135,-62.710073976867164,-159.29813316751628,461.27633243812346
1156,-5.031896450697544,-18.307032547990552,-29.59852761925127,-22.274314600055128,-36.61756509598091,-25.936421109653196,-29.903703161717775,-34.32874852748211,-95.3638570207833,-1.0646143986329673,-24.563131168553923,-78.73178995635872,-54.01257101657174,-53.40221993163873,-150.7532179784541,-58.89537969603583,-24.41054339732067,-36.61756509598091,-64.99889054536595,110.17187083040844,444.18650205999916
1160,-6.710361934263327,-24.10536785485416,-26.54677219458621,-22.274314600055128,-24.715718939787177,-23.800192312387654,-14.339750495925975,-23.037253456221393,-56.60656312753704,1.6819654835655862,-12.203521698660433,-41.34778600421175,-53.40221993163873,-49.892701193273915,-82.85165977965656,-48.36682348094138,-18.001857005524045,-23.3424289986879,-60.87902072206812,214.6944941251867,426.7914961394083
1164,-14.64492603839248,-29.903703161717775,-22.42690237128838,-25.020894482253677,-4.26895759453128,-22.884665684988136,2.292316568498598,-0.9120266273997142,18.008857005523648,2.9026676534316094,2.9026676534316094,13.583811639759316,-53.097044389172225,-50.65564004944018,75.07668344676026,-27.46229882198573,-5.031896450697544,-9.91470513016164,-54.47033433027149,37.84526726584653,409.0913146763509
